# Data taken from Menang et al. (2013), which has been normalised to Thuillier. Smoothed to 0.0003 microns and interpolated to Uranus wavelengths. Gaussian.
# Wavelength (microns)    Spectral Luminosity (W micron-1)
1
6.955e5
      1.48996  8.60047e+25
      1.49012  8.45372e+25
      1.49028  8.54249e+25
      1.49044  8.69293e+25
      1.49060  8.68456e+25
      1.49076  8.57528e+25
      1.49092  8.64604e+25
      1.49109  8.76165e+25
      1.49125  8.75799e+25
      1.49141  8.56182e+25
      1.49157  8.36885e+25
      1.49173  8.48938e+25
      1.49189  8.50495e+25
      1.49205  8.43142e+25
      1.49221  8.52201e+25
      1.49237  8.71549e+25
      1.49253  8.80349e+25
      1.49269  8.80976e+25
      1.49285  8.77620e+25
      1.49301  8.73169e+25
      1.49317  8.72795e+25
      1.49333  8.74295e+25
      1.49349  8.74632e+25
      1.49365  8.71460e+25
      1.49381  8.69337e+25
      1.49397  8.64398e+25
      1.49414  8.50575e+25
      1.49430  8.52034e+25
      1.49446  8.68131e+25
      1.49462  8.69763e+25
      1.49478  8.69273e+25
      1.49494  8.72136e+25
      1.49510  8.67360e+25
      1.49526  8.66678e+25
      1.49542  8.68725e+25
      1.49558  8.63830e+25
      1.49574  8.46465e+25
      1.49590  8.15992e+25
      1.49606  8.06685e+25
      1.49622  8.39718e+25
      1.49638  8.34909e+25
      1.49654  8.35245e+25
      1.49670  8.61725e+25
      1.49686  8.69971e+25
      1.49703  8.65077e+25
      1.49719  8.49315e+25
      1.49735  8.51013e+25
      1.49751  8.61112e+25
      1.49767  8.61314e+25
      1.49783  8.63480e+25
      1.49799  8.66291e+25
      1.49815  8.61734e+25
      1.49831  8.49978e+25
      1.49847  8.48886e+25
      1.49863  8.51910e+25
      1.49879  8.52496e+25
      1.49895  8.60167e+25
      1.49911  8.62837e+25
      1.49927  8.57121e+25
      1.49943  8.60573e+25
      1.49959  8.65796e+25
      1.49975  8.66629e+25
      1.49991  8.65467e+25
      1.50008  8.62292e+25
      1.50024  8.59788e+25
      1.50040  8.61679e+25
      1.50056  8.62866e+25
      1.50072  8.59846e+25
      1.50088  8.57016e+25
      1.50104  8.56200e+25
      1.50120  8.56106e+25
      1.50136  8.58052e+25
      1.50152  8.55363e+25
      1.50168  8.45753e+25
      1.50184  8.37292e+25
      1.50200  8.38223e+25
      1.50216  8.28689e+25
      1.50232  8.30564e+25
      1.50248  8.19161e+25
      1.50264  7.62481e+25
      1.50280  6.51818e+25
      1.50296  6.20122e+25
      1.50313  7.31815e+25
      1.50329  8.03981e+25
      1.50345  8.26778e+25
      1.50361  8.36875e+25
      1.50377  8.40953e+25
      1.50393  8.33508e+25
      1.50409  8.13122e+25
      1.50425  7.39729e+25
      1.50441  6.41785e+25
      1.50457  6.81953e+25
      1.50473  7.61964e+25
      1.50489  7.88385e+25
      1.50505  7.38609e+25
      1.50521  6.97079e+25
      1.50537  7.58004e+25
      1.50553  7.65786e+25
      1.50569  7.87281e+25
      1.50585  8.30995e+25
      1.50601  8.47992e+25
      1.50618  8.50824e+25
      1.50634  8.50745e+25
      1.50650  8.51460e+25
      1.50666  8.50188e+25
      1.50682  8.51202e+25
      1.50698  8.50140e+25
      1.50714  8.47119e+25
      1.50730  8.48970e+25
      1.50746  8.51202e+25
      1.50762  8.51616e+25
      1.50778  8.50890e+25
      1.50794  8.44634e+25
      1.50810  8.29267e+25
      1.50826  8.34940e+25
      1.50842  8.45289e+25
      1.50858  8.43872e+25
      1.50874  8.12821e+25
      1.50890  8.03467e+25
      1.50906  8.37668e+25
      1.50923  8.44941e+25
      1.50939  8.44428e+25
      1.50955  8.44074e+25
      1.50971  8.28451e+25
      1.50987  7.94108e+25
      1.51003  8.00988e+25
      1.51019  8.31150e+25
      1.51035  8.41921e+25
      1.51051  8.45606e+25
      1.51067  8.46922e+25
      1.51083  8.46511e+25
      1.51099  8.43151e+25
      1.51115  8.44119e+25
      1.51131  8.47391e+25
      1.51147  8.45343e+25
      1.51163  8.42025e+25
      1.51179  8.43671e+25
      1.51195  8.42148e+25
      1.51211  8.36723e+25
      1.51228  8.33967e+25
      1.51244  8.28064e+25
      1.51260  8.13514e+25
      1.51276  8.23919e+25
      1.51292  8.41904e+25
      1.51308  8.44835e+25
      1.51324  8.44304e+25
      1.51340  8.43417e+25
      1.51356  8.41569e+25
      1.51372  8.36499e+25
      1.51388  8.19593e+25
      1.51404  8.08616e+25
      1.51420  8.24863e+25
      1.51436  8.39332e+25
      1.51452  8.41264e+25
      1.51468  8.27514e+25
      1.51484  8.17887e+25
      1.51500  8.32509e+25
      1.51516  8.40562e+25
      1.51533  8.41564e+25
      1.51549  8.40968e+25
      1.51565  8.40485e+25
      1.51581  8.39837e+25
      1.51597  8.40079e+25
      1.51613  8.30112e+25
      1.51629  8.03893e+25
      1.51645  7.99778e+25
      1.51661  8.12114e+25
      1.51677  8.17303e+25
      1.51693  8.30412e+25
      1.51709  8.30734e+25
      1.51725  8.21022e+25
      1.51741  8.27631e+25
      1.51757  8.34643e+25
      1.51773  8.35002e+25
      1.51789  8.33285e+25
      1.51805  8.21821e+25
      1.51822  8.09353e+25
      1.51838  8.20473e+25
      1.51854  8.31000e+25
      1.51870  8.29285e+25
      1.51886  8.31309e+25
      1.51902  8.34717e+25
      1.51918  8.36277e+25
      1.51934  8.35717e+25
      1.51950  8.34621e+25
      1.51966  8.33248e+25
      1.51982  8.30840e+25
      1.51998  8.29132e+25
      1.52014  8.26146e+25
      1.52030  8.17078e+25
      1.52046  8.13846e+25
      1.52062  8.20674e+25
      1.52078  8.26546e+25
      1.52094  8.14861e+25
      1.52110  7.73551e+25
      1.52127  7.82020e+25
      1.52143  8.19008e+25
      1.52159  8.25234e+25
      1.52175  8.22522e+25
      1.52191  8.22403e+25
      1.52207  8.04235e+25
      1.52223  7.73972e+25
      1.52239  7.70517e+25
      1.52255  8.03767e+25
      1.52271  8.16183e+25
      1.52287  8.08907e+25
      1.52303  8.16290e+25
      1.52319  8.22033e+25
      1.52335  8.20468e+25
      1.52351  8.17191e+25
      1.52367  8.16367e+25
      1.52383  8.21587e+25
      1.52399  8.25428e+25
      1.52415  8.21820e+25
      1.52432  8.11327e+25
      1.52448  8.11807e+25
      1.52464  8.11333e+25
      1.52480  7.84791e+25
      1.52496  7.76166e+25
      1.52512  8.08210e+25
      1.52528  8.24069e+25
      1.52544  8.23829e+25
      1.52560  8.21707e+25
      1.52576  8.20622e+25
      1.52592  8.23759e+25
      1.52608  8.26192e+25
      1.52624  8.24201e+25
      1.52640  8.16421e+25
      1.52656  8.02733e+25
      1.52672  8.00967e+25
      1.52688  8.15155e+25
      1.52704  8.22128e+25
      1.52720  8.23072e+25
      1.52737  8.23730e+25
      1.52753  8.23887e+25
      1.52769  8.23561e+25
      1.52785  8.23847e+25
      1.52801  8.22747e+25
      1.52817  8.22681e+25
      1.52833  8.23492e+25
      1.52849  8.23238e+25
      1.52865  8.20231e+25
      1.52881  8.15547e+25
      1.52897  8.16360e+25
      1.52913  8.17999e+25
      1.52929  8.12235e+25
      1.52945  8.00965e+25
      1.52961  7.77432e+25
      1.52977  7.16594e+25
      1.52993  7.08250e+25
      1.53009  7.74956e+25
      1.53025  8.09736e+25
      1.53042  8.13343e+25
      1.53058  8.08411e+25
      1.53074  8.13366e+25
      1.53090  8.12178e+25
      1.53106  8.12755e+25
      1.53122  8.16673e+25
      1.53138  8.17376e+25
      1.53154  8.17728e+25
      1.53170  8.17202e+25
      1.53186  8.16043e+25
      1.53202  8.14860e+25
      1.53218  8.13723e+25
      1.53234  8.13907e+25
      1.53250  8.14255e+25
      1.53266  8.11788e+25
      1.53282  8.11403e+25
      1.53298  8.14918e+25
      1.53314  8.13060e+25
      1.53330  8.09828e+25
      1.53347  8.10479e+25
      1.53363  8.09947e+25
      1.53379  7.86673e+25
      1.53395  7.56376e+25
      1.53411  7.84240e+25
      1.53427  8.07445e+25
      1.53443  8.09089e+25
      1.53459  8.03534e+25
      1.53475  7.91215e+25
      1.53491  7.94019e+25
      1.53507  8.04501e+25
      1.53523  8.03690e+25
      1.53539  8.04044e+25
      1.53555  8.07809e+25
      1.53571  8.06443e+25
      1.53587  8.08234e+25
      1.53603  8.10927e+25
      1.53619  8.09693e+25
      1.53635  8.04427e+25
      1.53652  8.00250e+25
      1.53668  8.05061e+25
      1.53684  8.08365e+25
      1.53700  8.09895e+25
      1.53716  8.10047e+25
      1.53732  8.10443e+25
      1.53748  8.09360e+25
      1.53764  8.07393e+25
      1.53780  8.01180e+25
      1.53796  7.75339e+25
      1.53812  7.58368e+25
      1.53828  7.87957e+25
      1.53844  7.99986e+25
      1.53860  7.94356e+25
      1.53876  7.99648e+25
      1.53892  8.03125e+25
      1.53908  7.92567e+25
      1.53924  7.86957e+25
      1.53940  8.00761e+25
      1.53957  8.03699e+25
      1.53973  7.79612e+25
      1.53989  7.35399e+25
      1.54005  7.51554e+25
      1.54021  7.87067e+25
      1.54037  7.84974e+25
      1.54053  7.84123e+25
      1.54069  7.77658e+25
      1.54085  7.79149e+25
      1.54101  7.97182e+25
      1.54117  8.02381e+25
      1.54133  8.02196e+25
      1.54149  8.01525e+25
      1.54165  8.01901e+25
      1.54181  8.01781e+25
      1.54197  7.99379e+25
      1.54213  7.98420e+25
      1.54229  7.97674e+25
      1.54246  7.87231e+25
      1.54262  7.67577e+25
      1.54278  7.77200e+25
      1.54294  7.93399e+25
      1.54310  7.96413e+25
      1.54326  7.98175e+25
      1.54342  8.00150e+25
      1.54358  7.99362e+25
      1.54374  7.98404e+25
      1.54390  7.97774e+25
      1.54406  7.96139e+25
      1.54422  7.96235e+25
      1.54438  7.97685e+25
      1.54454  7.98368e+25
      1.54470  7.99360e+25
      1.54486  8.00133e+25
      1.54502  7.99340e+25
      1.54518  7.98705e+25
      1.54534  7.96793e+25
      1.54551  7.88942e+25
      1.54567  7.90260e+25
      1.54583  7.96099e+25
      1.54599  7.96260e+25
      1.54615  7.91132e+25
      1.54631  7.80755e+25
      1.54647  7.84990e+25
      1.54663  7.93454e+25
      1.54679  7.95599e+25
      1.54695  7.95865e+25
      1.54711  7.93558e+25
      1.54727  7.85211e+25
      1.54743  7.80385e+25
      1.54759  7.89354e+25
      1.54775  7.90116e+25
      1.54791  7.79895e+25
      1.54807  7.75194e+25
      1.54823  7.64961e+25
      1.54839  7.71842e+25
      1.54856  7.90615e+25
      1.54872  7.94680e+25
      1.54888  7.92063e+25
      1.54904  7.91341e+25
      1.54920  7.92877e+25
      1.54936  7.86891e+25
      1.54952  7.81701e+25
      1.54968  7.87378e+25
      1.54984  7.88482e+25
      1.55000  7.79055e+25
      1.55016  7.72409e+25
      1.55032  7.64935e+25
      1.55048  7.45171e+25
      1.55064  7.59293e+25
      1.55080  7.85888e+25
      1.55096  7.89534e+25
      1.55112  7.84197e+25
      1.55128  7.81192e+25
      1.55144  7.85428e+25
      1.55161  7.88005e+25
      1.55177  7.82402e+25
      1.55193  7.81102e+25
      1.55209  7.84285e+25
      1.55225  7.79126e+25
      1.55241  7.76975e+25
      1.55257  7.82941e+25
      1.55273  7.83262e+25
      1.55289  7.84289e+25
      1.55305  7.85344e+25
      1.55321  7.85024e+25
      1.55337  7.80432e+25
      1.55353  7.59714e+25
      1.55369  7.47177e+25
      1.55385  7.46803e+25
      1.55401  7.62807e+25
      1.55417  7.66923e+25
      1.55433  7.70225e+25
      1.55449  7.62551e+25
      1.55466  7.55329e+25
      1.55482  7.70459e+25
      1.55498  7.81549e+25
      1.55514  7.83582e+25
      1.55530  7.76693e+25
      1.55546  7.60547e+25
      1.55562  7.60614e+25
      1.55578  7.61715e+25
      1.55594  7.43020e+25
      1.55610  7.26949e+25
      1.55626  7.30814e+25
      1.55642  7.57656e+25
      1.55658  7.67643e+25
      1.55674  7.74670e+25
      1.55690  7.72985e+25
      1.55706  7.69174e+25
      1.55722  7.74080e+25
      1.55738  7.77825e+25
      1.55754  7.75183e+25
      1.55771  7.76589e+25
      1.55787  7.78471e+25
      1.55803  7.77835e+25
      1.55819  7.77681e+25
      1.55835  7.76542e+25
      1.55851  7.77107e+25
      1.55867  7.79430e+25
      1.55883  7.80465e+25
      1.55899  7.76106e+25
      1.55915  7.55217e+25
      1.55931  7.35282e+25
      1.55947  7.13425e+25
      1.55963  7.13263e+25
      1.55979  7.51190e+25
      1.55995  7.70595e+25
      1.56011  7.76139e+25
      1.56027  7.74149e+25
      1.56043  7.75842e+25
      1.56059  7.71822e+25
      1.56076  7.40179e+25
      1.56092  7.29898e+25
      1.56108  7.58460e+25
      1.56124  7.73922e+25
      1.56140  7.69379e+25
      1.56156  7.59275e+25
      1.56172  7.51609e+25
      1.56188  7.54455e+25
      1.56204  7.70231e+25
      1.56220  7.73530e+25
      1.56236  7.56933e+25
      1.56252  7.09004e+25
      1.56268  7.15367e+25
      1.56284  7.61450e+25
      1.56300  7.74124e+25
      1.56316  7.74075e+25
      1.56332  7.67737e+25
      1.56348  7.33526e+25
      1.56365  6.96892e+25
      1.56381  7.38759e+25
      1.56397  7.69637e+25
      1.56413  7.70490e+25
      1.56429  7.66665e+25
      1.56445  7.69406e+25
      1.56461  7.72759e+25
      1.56477  7.67686e+25
      1.56493  7.59657e+25
      1.56509  7.55412e+25
      1.56525  7.45332e+25
      1.56541  7.56618e+25
      1.56557  7.59570e+25
      1.56573  7.51434e+25
      1.56589  7.63810e+25
      1.56605  7.70653e+25
      1.56621  7.70036e+25
      1.56637  7.61124e+25
      1.56653  7.30523e+25
      1.56670  7.23744e+25
      1.56686  7.44412e+25
      1.56702  7.53462e+25
      1.56718  7.64829e+25
      1.56734  7.62370e+25
      1.56750  7.52965e+25
      1.56766  7.50373e+25
      1.56782  7.49795e+25
      1.56798  7.41632e+25
      1.56814  7.21157e+25
      1.56830  7.31236e+25
      1.56846  7.44822e+25
      1.56862  7.46661e+25
      1.56878  7.46822e+25
      1.56894  7.26831e+25
      1.56910  7.10391e+25
      1.56926  7.37240e+25
      1.56942  7.37555e+25
      1.56958  6.89950e+25
      1.56975  6.87140e+25
      1.56991  7.30861e+25
      1.57007  7.50735e+25
      1.57023  7.52325e+25
      1.57039  7.51297e+25
      1.57055  7.52744e+25
      1.57071  7.56650e+25
      1.57087  7.57604e+25
      1.57103  7.55977e+25
      1.57119  7.55291e+25
      1.57135  7.56779e+25
      1.57151  7.56515e+25
      1.57167  7.56339e+25
      1.57183  7.55965e+25
      1.57199  7.53435e+25
      1.57215  7.56321e+25
      1.57231  7.57712e+25
      1.57247  7.54188e+25
      1.57263  7.31128e+25
      1.57280  7.07191e+25
      1.57296  7.30737e+25
      1.57312  7.43922e+25
      1.57328  7.42451e+25
      1.57344  7.40328e+25
      1.57360  7.44798e+25
      1.57376  7.47014e+25
      1.57392  7.50474e+25
      1.57408  7.50026e+25
      1.57424  7.31469e+25
      1.57440  6.64630e+25
      1.57456  6.31838e+25
      1.57472  6.92405e+25
      1.57488  7.31678e+25
      1.57504  7.17712e+25
      1.57520  6.43016e+25
      1.57536  6.01542e+25
      1.57552  6.73276e+25
      1.57568  7.24423e+25
      1.57585  7.40967e+25
      1.57601  7.45028e+25
      1.57617  7.45746e+25
      1.57633  7.41886e+25
      1.57649  7.23235e+25
      1.57665  7.04109e+25
      1.57681  6.47838e+25
      1.57697  5.64193e+25
      1.57713  5.83236e+25
      1.57729  6.15410e+25
      1.57745  6.36744e+25
      1.57761  6.95464e+25
      1.57777  7.07336e+25
      1.57793  7.20491e+25
      1.57809  7.44382e+25
      1.57825  7.49932e+25
      1.57841  7.52561e+25
      1.57857  7.50649e+25
      1.57873  7.43933e+25
      1.57890  7.33993e+25
      1.57906  7.31897e+25
      1.57922  7.19499e+25
      1.57938  7.16155e+25
      1.57954  7.39062e+25
      1.57970  7.50182e+25
      1.57986  7.50588e+25
      1.58002  7.39667e+25
      1.58018  7.10495e+25
      1.58034  7.06958e+25
      1.58050  7.35991e+25
      1.58066  7.48810e+25
      1.58082  7.49769e+25
      1.58098  7.44102e+25
      1.58114  7.42357e+25
      1.58130  7.32807e+25
      1.58146  7.17793e+25
      1.58162  7.32223e+25
      1.58178  7.43557e+25
      1.58195  7.30693e+25
      1.58211  6.87384e+25
      1.58227  6.54243e+25
      1.58243  6.88246e+25
      1.58259  6.96449e+25
      1.58275  6.94743e+25
      1.58291  7.21160e+25
      1.58307  7.28280e+25
      1.58323  7.32308e+25
      1.58339  7.38837e+25
      1.58355  7.29757e+25
      1.58371  6.82213e+25
      1.58387  6.48764e+25
      1.58403  6.74616e+25
      1.58419  7.01336e+25
      1.58435  7.21519e+25
      1.58451  7.33984e+25
      1.58467  7.42257e+25
      1.58483  7.42466e+25
      1.58500  7.41131e+25
      1.58516  7.41270e+25
      1.58532  7.39451e+25
      1.58548  7.34564e+25
      1.58564  7.16960e+25
      1.58580  7.15569e+25
      1.58596  7.33613e+25
      1.58612  7.38929e+25
      1.58628  7.33168e+25
      1.58644  7.31260e+25
      1.58660  7.27702e+25
      1.58676  7.08971e+25
      1.58692  7.12192e+25
      1.58708  7.17253e+25
      1.58724  6.95439e+25
      1.58740  7.06942e+25
      1.58756  7.28317e+25
      1.58772  7.31645e+25
      1.58789  7.31903e+25
      1.58805  7.26789e+25
      1.58821  6.94768e+25
      1.58837  6.73679e+25
      1.58853  7.02403e+25
      1.58869  7.06858e+25
      1.58885  6.70868e+25
      1.58901  6.37959e+25
      1.58917  5.74340e+25
      1.58933  5.56281e+25
      1.58949  6.23664e+25
      1.58965  6.42402e+25
      1.58981  6.54019e+25
      1.58997  6.70064e+25
      1.59013  6.76108e+25
      1.59029  6.72983e+25
      1.59045  6.93131e+25
      1.59061  7.05991e+25
      1.59077  6.94887e+25
      1.59094  6.71651e+25
      1.59110  6.89172e+25
      1.59126  7.12934e+25
      1.59142  7.03665e+25
      1.59158  6.86750e+25
      1.59174  7.01537e+25
      1.59190  7.23536e+25
      1.59206  7.27825e+25
      1.59222  7.24010e+25
      1.59238  7.05739e+25
      1.59254  6.91820e+25
      1.59270  7.16532e+25
      1.59286  7.33333e+25
      1.59302  7.34689e+25
      1.59318  7.26382e+25
      1.59334  7.21860e+25
      1.59350  7.29784e+25
      1.59366  7.32145e+25
      1.59382  7.26444e+25
      1.59399  7.30253e+25
      1.59415  7.25871e+25
      1.59431  7.14237e+25
      1.59447  7.12663e+25
      1.59463  7.10744e+25
      1.59479  7.18921e+25
      1.59495  7.24022e+25
      1.59511  7.29493e+25
      1.59527  7.31847e+25
      1.59543  7.32541e+25
      1.59559  7.24774e+25
      1.59575  7.00313e+25
      1.59591  6.86275e+25
      1.59607  6.98569e+25
      1.59623  6.76283e+25
      1.59639  6.15898e+25
      1.59655  6.31610e+25
      1.59671  6.77347e+25
      1.59687  6.87176e+25
      1.59704  6.87579e+25
      1.59720  6.86438e+25
      1.59736  7.09622e+25
      1.59752  7.17987e+25
      1.59768  7.12788e+25
      1.59784  7.18367e+25
      1.59800  7.28506e+25
      1.59816  7.27529e+25
      1.59832  7.04325e+25
      1.59848  6.62331e+25
      1.59864  6.79693e+25
      1.59880  7.17920e+25
      1.59896  7.29316e+25
      1.59912  7.30273e+25
      1.59928  7.28860e+25
      1.59944  7.27182e+25
      1.59960  7.25112e+25
      1.59976  7.26146e+25
      1.59992  7.27746e+25
      1.60009  7.17410e+25
      1.60025  7.10766e+25
      1.60041  7.20650e+25
      1.60057  7.23163e+25
      1.60073  7.09886e+25
      1.60089  6.72847e+25
      1.60105  6.37326e+25
      1.60121  6.37591e+25
      1.60137  6.68557e+25
      1.60153  7.02398e+25
      1.60169  7.15127e+25
      1.60185  7.09002e+25
      1.60201  7.05596e+25
      1.60217  7.08694e+25
      1.60233  7.10392e+25
      1.60249  6.93014e+25
      1.60265  6.88529e+25
      1.60281  7.07348e+25
      1.60297  7.18340e+25
      1.60314  7.20885e+25
      1.60330  7.15873e+25
      1.60346  7.15898e+25
      1.60362  7.20089e+25
      1.60378  7.21384e+25
      1.60394  7.16785e+25
      1.60410  6.99478e+25
      1.60426  6.77480e+25
      1.60442  6.64326e+25
      1.60458  6.58526e+25
      1.60474  6.75568e+25
      1.60490  7.03340e+25
      1.60506  7.14704e+25
      1.60522  7.17330e+25
      1.60538  7.17266e+25
      1.60554  7.16383e+25
      1.60570  7.17901e+25
      1.60586  7.19478e+25
      1.60602  7.16602e+25
      1.60619  7.04867e+25
      1.60635  6.64265e+25
      1.60651  6.58943e+25
      1.60667  6.99735e+25
      1.60683  7.10884e+25
      1.60699  7.13053e+25
      1.60715  7.15818e+25
      1.60731  7.07870e+25
      1.60747  6.86362e+25
      1.60763  6.74012e+25
      1.60779  6.85513e+25
      1.60795  6.83746e+25
      1.60811  6.88295e+25
      1.60827  7.07163e+25
      1.60843  7.13146e+25
      1.60859  7.08832e+25
      1.60875  7.07091e+25
      1.60891  7.09160e+25
      1.60907  7.00394e+25
      1.60924  6.86756e+25
      1.60940  6.87861e+25
      1.60956  6.93886e+25
      1.60972  6.69376e+25
      1.60988  6.17772e+25
      1.61004  6.42781e+25
      1.61020  6.88882e+25
      1.61036  6.86331e+25
      1.61052  6.59855e+25
      1.61068  6.47894e+25
      1.61084  6.78282e+25
      1.61100  6.97193e+25
      1.61116  7.00906e+25
      1.61132  7.01955e+25
      1.61148  7.00884e+25
      1.61164  7.01529e+25
      1.61180  6.93616e+25
      1.61196  6.69670e+25
      1.61213  6.73057e+25
      1.61229  6.90899e+25
      1.61245  6.97684e+25
      1.61261  6.99236e+25
      1.61277  6.92889e+25
      1.61293  6.63110e+25
      1.61309  6.53939e+25
      1.61325  6.80955e+25
      1.61341  6.90725e+25
      1.61357  6.98309e+25
      1.61373  7.03056e+25
      1.61389  6.96769e+25
      1.61405  6.83860e+25
      1.61421  6.92384e+25
      1.61437  7.05772e+25
      1.61453  7.07522e+25
      1.61469  7.06233e+25
      1.61485  7.07217e+25
      1.61501  7.08414e+25
      1.61518  7.07294e+25
      1.61534  6.99498e+25
      1.61550  6.84321e+25
      1.61566  6.74580e+25
      1.61582  6.72425e+25
      1.61598  6.73679e+25
      1.61614  6.67196e+25
      1.61630  6.87112e+25
      1.61646  7.01410e+25
      1.61662  6.86528e+25
      1.61678  6.36192e+25
      1.61694  6.19758e+25
      1.61710  6.69704e+25
      1.61726  6.98698e+25
      1.61742  6.98838e+25
      1.61758  6.96529e+25
      1.61774  6.92969e+25
      1.61790  6.79436e+25
      1.61806  6.83001e+25
      1.61823  6.80357e+25
      1.61839  6.58852e+25
      1.61855  6.60064e+25
      1.61871  6.86899e+25
      1.61887  6.88885e+25
      1.61903  6.75738e+25
      1.61919  6.91049e+25
      1.61935  7.03355e+25
      1.61951  7.04394e+25
      1.61967  7.00961e+25
      1.61983  6.82611e+25
      1.61999  6.57011e+25
      1.62015  6.40701e+25
      1.62031  6.51260e+25
      1.62047  6.80339e+25
      1.62063  6.84092e+25
      1.62079  6.67817e+25
      1.62095  6.69510e+25
      1.62111  6.67503e+25
      1.62128  6.65546e+25
      1.62144  6.90390e+25
      1.62160  6.88145e+25
      1.62176  6.58419e+25
      1.62192  6.38454e+25
      1.62208  6.52513e+25
      1.62224  6.90275e+25
      1.62240  7.03603e+25
      1.62256  7.05186e+25
      1.62272  7.02745e+25
      1.62288  6.89856e+25
      1.62304  6.80616e+25
      1.62320  6.92334e+25
      1.62336  6.94359e+25
      1.62352  6.71984e+25
      1.62368  6.69250e+25
      1.62384  6.87060e+25
      1.62400  6.80555e+25
      1.62416  6.88110e+25
      1.62433  6.96053e+25
      1.62449  6.72111e+25
      1.62465  6.52943e+25
      1.62481  6.77256e+25
      1.62497  6.81393e+25
      1.62513  6.80922e+25
      1.62529  6.95726e+25
      1.62545  6.98734e+25
      1.62561  6.91943e+25
      1.62577  6.90655e+25
      1.62593  6.97058e+25
      1.62609  6.99736e+25
      1.62625  6.96888e+25
      1.62641  6.95930e+25
      1.62657  6.98889e+25
      1.62673  6.99145e+25
      1.62689  6.98740e+25
      1.62705  6.99854e+25
      1.62721  7.00347e+25
      1.62738  6.99990e+25
      1.62754  6.97356e+25
      1.62770  6.94478e+25
      1.62786  6.96269e+25
      1.62802  6.94062e+25
      1.62818  6.88545e+25
      1.62834  6.91800e+25
      1.62850  6.95854e+25
      1.62866  6.93498e+25
      1.62882  6.78480e+25
      1.62898  6.74479e+25
      1.62914  6.90786e+25
      1.62930  6.96102e+25
      1.62946  6.94572e+25
      1.62962  6.85074e+25
      1.62978  6.81770e+25
      1.62994  6.92334e+25
      1.63010  6.94905e+25
      1.63026  6.90440e+25
      1.63043  6.87233e+25
      1.63059  6.91786e+25
      1.63075  6.94898e+25
      1.63091  6.95233e+25
      1.63107  6.94700e+25
      1.63123  6.91741e+25
      1.63139  6.79395e+25
      1.63155  6.74779e+25
      1.63171  6.85017e+25
      1.63187  6.69467e+25
      1.63203  6.25023e+25
      1.63219  6.31597e+25
      1.63235  6.64105e+25
      1.63251  6.83497e+25
      1.63267  6.83293e+25
      1.63283  6.64332e+25
      1.63299  6.69289e+25
      1.63315  6.87503e+25
      1.63332  6.89487e+25
      1.63348  6.79701e+25
      1.63364  6.70909e+25
      1.63380  6.75014e+25
      1.63396  6.83314e+25
      1.63412  6.87643e+25
      1.63428  6.88102e+25
      1.63444  6.88272e+25
      1.63460  6.88195e+25
      1.63476  6.86970e+25
      1.63492  6.81762e+25
      1.63508  6.75204e+25
      1.63524  6.77262e+25
      1.63540  6.81751e+25
      1.63556  6.83133e+25
      1.63572  6.82174e+25
      1.63588  6.79964e+25
      1.63604  6.78366e+25
      1.63620  6.79559e+25
      1.63637  6.80836e+25
      1.63653  6.71412e+25
      1.63669  6.41218e+25
      1.63685  6.25742e+25
      1.63701  6.36966e+25
      1.63717  6.57541e+25
      1.63733  6.72453e+25
      1.63749  6.76029e+25
      1.63765  6.73818e+25
      1.63781  6.72433e+25
      1.63797  6.70794e+25
      1.63813  6.61771e+25
      1.63829  6.41408e+25
      1.63845  5.83589e+25
      1.63861  5.56554e+25
      1.63877  6.10549e+25
      1.63893  6.54635e+25
      1.63909  6.68832e+25
      1.63925  6.66895e+25
      1.63942  6.65000e+25
      1.63958  6.64975e+25
      1.63974  6.47730e+25
      1.63990  6.27697e+25
      1.64006  6.34597e+25
      1.64022  6.26104e+25
