#  HD189733b (wavelength) 493805.0			
1					
543185.5
     0.200000  3.61827e+22
     0.205000  5.10501e+22
     0.210000  1.19045e+23
     0.215000  1.90082e+23
     0.220000  2.47361e+23
     0.225000  3.57815e+23
     0.230000  4.51309e+23
     0.235000  5.34723e+23
     0.240000  6.01411e+23
     0.245000  7.72438e+23
     0.250000  5.90999e+23
     0.255000  1.38668e+24
     0.260000  2.48604e+24
     0.265000  7.97523e+24
     0.270000  6.49813e+24
     0.275000  4.13059e+24
     0.280000  3.38099e+24
     0.285000  2.90449e+24
     0.290000  1.46141e+25
     0.295000  1.41291e+25
     0.300000  1.31354e+25
     0.305000  1.86603e+25
     0.310000  2.64991e+25
     0.315000  3.05592e+25
     0.320000  3.10504e+25
     0.325000  4.13573e+25
     0.330000  5.00402e+25
     0.335000  3.94053e+25
     0.340000  3.35382e+25
     0.345000  3.79014e+25
     0.350000  5.06998e+25
     0.355000  4.80991e+25
     0.360000  4.18991e+25
     0.365000  6.35939e+25
     0.370000  5.93920e+25
     0.375000  3.86481e+25
     0.380000  5.06980e+25
     0.385000  2.97562e+25
     0.390000  5.28028e+25
     0.395000  4.80013e+25
     0.400000  9.67937e+25
     0.405000  9.41800e+25
     0.410000  1.09395e+26
     0.415000  1.00885e+26
     0.420000  9.52404e+25
     0.425000  9.31993e+25
     0.430000  8.27051e+25
     0.435000  1.12352e+26
     0.440000  1.11669e+26
     0.445000  1.28862e+26
     0.450000  1.47682e+26
     0.455000  1.49221e+26
     0.460000  1.53202e+26
     0.465000  1.54186e+26
     0.470000  1.55400e+26
     0.475000  1.58578e+26
     0.480000  1.61400e+26
     0.485000  1.54431e+26
     0.490000  1.50537e+26
     0.495000  1.53740e+26
     0.500000  1.45695e+26
     0.505000  1.46317e+26
     0.510000  1.44939e+26
     0.515000  1.28395e+26
     0.520000  1.26163e+26
     0.525000  1.45906e+26
     0.530000  1.52446e+26
     0.535000  1.54200e+26
     0.540000  1.53170e+26
     0.545000  1.55463e+26
     0.550000  1.57727e+26
     0.555000  1.58773e+26
     0.560000  1.56967e+26
     0.565000  1.59633e+26
     0.570000  1.60759e+26
     0.575000  1.62565e+26
     0.580000  1.62582e+26
     0.585000  1.60731e+26
     0.590000  1.53494e+26
     0.595000  1.60483e+26
     0.600000  1.59763e+26
     0.605000  1.59499e+26
     0.610000  1.55615e+26
     0.615000  1.50411e+26
     0.620000  1.51658e+26
     0.625000  1.50900e+26
     0.630000  1.51137e+26
     0.635000  1.50200e+26
     0.640000  1.49208e+26
     0.645000  1.47563e+26
     0.650000  1.47364e+26
     0.655000  1.45904e+26
     0.660000  1.45568e+26
     0.665000  1.46282e+26
     0.670000  1.44884e+26
     0.675000  1.43948e+26
     0.680000  1.43073e+26
     0.685000  1.41572e+26
     0.690000  1.40981e+26
     0.695000  1.39454e+26
     0.700000  1.37481e+26
     0.705000  1.36472e+26
     0.710000  1.34934e+26
     0.715000  1.32329e+26
     0.720000  1.31200e+26
     0.725000  1.31200e+26
     0.730000  1.29972e+26
     0.735000  1.28881e+26
     0.740000  1.27397e+26
     0.745000  1.26660e+26
     0.750000  1.26600e+26
     0.755000  1.26194e+26
     0.760000  1.25200e+26
     0.765000  1.23685e+26
     0.770000  1.22444e+26
     0.775000  1.22304e+26
     0.780000  1.21781e+26
     0.785000  1.20319e+26
     0.790000  1.17860e+26
     0.795000  1.15936e+26
     0.800000  1.15667e+26
     0.805000  1.15000e+26
     0.810000  1.13289e+26
     0.815000  1.12272e+26
     0.820000  1.09655e+26
     0.825000  1.10311e+26
     0.830000  1.09159e+26
     0.835000  1.07000e+26
     0.840000  1.07000e+26
     0.845000  1.06294e+26
     0.850000  1.02607e+26
     0.855000  9.97944e+25
     0.860000  1.03618e+26
     0.865000  9.96643e+25
     0.870000  9.95470e+25
     0.875000  1.01667e+26
     0.880000  9.95770e+25
     0.885000  9.93784e+25
     0.890000  9.96521e+25
     0.895000  9.84887e+25
     0.900000  9.70272e+25
     0.905000  9.67753e+25
     0.910000  9.54501e+25
     0.915000  9.39207e+25
     0.920000  9.16142e+25
     0.925000  9.06731e+25
     0.930000  9.08667e+25
     0.935000  9.02720e+25
     0.940000  8.84729e+25
     0.945000  8.76743e+25
     0.950000  8.80284e+25
     0.955000  8.72215e+25
     0.960000  8.66504e+25
     0.965000  8.56916e+25
     0.970000  8.50796e+25
     0.975000  8.43964e+25
     0.980000  8.40907e+25
     0.985000  8.38833e+25
     0.990000  8.33994e+25
     0.995000  8.30184e+25
      1.00000  8.23568e+25
      1.00500  8.14294e+25
      1.01000  8.09787e+25
      1.01500  8.00844e+25
      1.02000  7.91976e+25
      1.02500  7.90704e+25
      1.03000  7.84330e+25
      1.03500  7.73623e+25
      1.04000  7.68275e+25
      1.04500  7.64126e+25
      1.05000  7.59057e+25
      1.05500  7.51905e+25
      1.06000  7.42551e+25
      1.06500  7.35575e+25
      1.07000  7.27289e+25
      1.07500  7.19622e+25
      1.08000  7.08730e+25
      1.08500  7.00483e+25
      1.09000  6.94084e+25
      1.09500  6.76782e+25
      1.10000  6.64107e+25
      1.10500  6.63333e+25
      1.11000  6.61893e+25
      1.11500  6.58900e+25
      1.12000  6.54721e+25
      1.12500  6.48381e+25
      1.13000  6.44465e+25
      1.13500  6.40447e+25
      1.14000  6.33258e+25
      1.14500  6.33453e+25
      1.15000  6.34311e+25
      1.15500  6.29210e+25
      1.16000  6.19965e+25
      1.16500  6.15869e+25
      1.17000  6.15159e+25
      1.17500  6.10970e+25
      1.18000  6.02470e+25
      1.18500  5.96007e+25
      1.19000  5.94374e+25
      1.19500  5.88042e+25
      1.20000  5.80627e+25
      1.20500  5.78153e+25
      1.21000  5.76694e+25
      1.21500  5.79459e+25
      1.22000  5.78340e+25
      1.22500  5.73606e+25
      1.23000  5.69117e+25
      1.23500  5.65334e+25
      1.24000  5.60680e+25
      1.24500  5.56479e+25
      1.25000  5.53255e+25
      1.25500  5.49730e+25
      1.26000  5.46069e+25
      1.26500  5.41182e+25
      1.27000  5.37860e+25
      1.27500  5.34366e+25
      1.28000  5.25586e+25
      1.28500  5.20565e+25
      1.29000  5.20624e+25
      1.29500  5.19659e+25
      1.30000  5.16831e+25
      1.30500  5.12752e+25
      1.31000  5.06371e+25
      1.31500  5.01132e+25
      1.32000  5.01000e+25
      1.32500  4.98791e+25
      1.33000  4.94333e+25
      1.33500  4.91889e+25
      1.34000  4.90563e+25
      1.34500  4.88578e+25
      1.35000  4.85003e+25
      1.35500  4.80078e+25
      1.36000  4.76169e+25
      1.36500  4.73713e+25
      1.37000  4.71764e+25
      1.37500  4.69612e+25
      1.38000  4.66832e+25
      1.38500  4.64118e+25
      1.39000  4.62040e+25
      1.39500  4.59120e+25
      1.40000  4.54273e+25
      1.40500  4.49468e+25
      1.41000  4.44736e+25
      1.41500  4.39623e+25
      1.42000  4.33649e+25
      1.42500  4.27698e+25
      1.43000  4.26975e+25
      1.43500  4.27667e+25
      1.44000  4.25114e+25
      1.44500  4.22201e+25
      1.45000  4.19900e+25
      1.45500  4.17607e+25
      1.46000  4.15524e+25
      1.46500  4.12728e+25
      1.47000  4.08662e+25
      1.47500  4.05513e+25
      1.48000  4.03532e+25
      1.48500  3.99750e+25
      1.49000  3.98088e+25
      1.49500  3.98290e+25
      1.50000  3.90663e+25
      1.50500  3.84361e+25
      1.51000  3.87284e+25
      1.51500  3.91462e+25
      1.52000  3.90729e+25
      1.52500  3.88984e+25
      1.53000  3.87676e+25
      1.53500  3.86372e+25
      1.54000  3.85381e+25
      1.54500  3.83478e+25
      1.55000  3.79950e+25
      1.55500  3.76461e+25
      1.56000  3.74191e+25
      1.56500  3.71452e+25
      1.57000  3.65711e+25
      1.57500  3.59115e+25
      1.58000  3.55705e+25
      1.58500  3.53454e+25
      1.59000  3.51868e+25
      1.59500  3.53256e+25
      1.60000  3.54864e+25
      1.60500  3.53280e+25
      1.61000  3.49916e+25
      1.61500  3.45575e+25
      1.62000  3.44559e+25
      1.62500  3.46202e+25
      1.63000  3.45532e+25
      1.63500  3.40115e+25
      1.64000  3.34136e+25
      1.64500  3.31376e+25
      1.65000  3.30499e+25
      1.65500  3.29621e+25
      1.66000  3.27496e+25
      1.66500  3.23104e+25
      1.67000  3.17619e+25
      1.67500  3.12783e+25
      1.68000  3.09590e+25
      1.68500  3.08405e+25
      1.69000  3.08230e+25
      1.69500  3.06141e+25
      1.70000  3.01782e+25
      1.70500  2.96898e+25
      1.71000  2.93515e+25
      1.71500  2.91107e+25
      1.72000  2.88301e+25
      1.72500  2.84344e+25
      1.73000  2.80245e+25
      1.73500  2.76786e+25
      1.74000  2.74449e+25
      1.74500  2.72830e+25
      1.75000  2.71639e+25
      1.75500  2.70065e+25
      1.76000  2.67971e+25
      1.76500  2.65326e+25
      1.77000  2.62687e+25
      1.77500  2.60057e+25
      1.78000  2.57705e+25
      1.78500  2.55774e+25
      1.79000  2.53524e+25
      1.79500  2.50551e+25
      1.80000  2.47773e+25
      1.80500  2.45556e+25
      1.81000  2.42850e+25
      1.81500  2.39145e+25
      1.82000  2.36041e+25
      1.82500  2.34276e+25
      1.83000  2.32818e+25
      1.83500  2.30061e+25
      1.84000  2.26849e+25
      1.84500  2.24418e+25
      1.85000  2.22692e+25
      1.85500  2.20944e+25
      1.86000  2.18305e+25
      1.86500  2.14986e+25
      1.87000  2.11414e+25
      1.87500  2.08808e+25
      1.88000  2.07560e+25
      1.88500  2.06371e+25
      1.89000  2.03918e+25
      1.89500  2.01660e+25
      1.90000  2.01037e+25
      1.90500  2.01000e+25
      1.91000  2.00341e+25
      1.91500  1.98601e+25
      1.92000  1.96466e+25
      1.92500  1.93695e+25
      1.93000  1.90980e+25
      1.93500  1.88506e+25
      1.94000  1.85828e+25
      1.94500  1.83673e+25
      1.95000  1.82667e+25
      1.95500  1.82470e+25
      1.96000  1.81579e+25
      1.96500  1.79998e+25
      1.97000  1.77967e+25
      1.97500  1.75940e+25
      1.98000  1.74044e+25
      1.98500  1.72618e+25
      1.99000  1.71613e+25
      1.99500  1.70740e+25
      2.00000  1.70073e+25
      2.00500  1.69408e+25
      2.01000  1.68616e+25
      2.01500  1.66869e+25
      2.02000  1.64265e+25
      2.02500  1.62289e+25
      2.03000  1.60659e+25
      2.03500  1.59675e+25
      2.04000  1.58695e+25
      2.04500  1.57716e+25
      2.05000  1.56480e+25
      2.05500  1.54533e+25
      2.06000  1.52590e+25
      2.06500  1.50826e+25
      2.07000  1.50000e+25
      2.07500  1.49791e+25
      2.08000  1.47933e+25
      2.08500  1.46948e+25
      2.09000  1.45033e+25
      2.09500  1.43123e+25
      2.10000  1.43000e+25
      2.10500  1.42158e+25
      2.11000  1.40420e+25
      2.11500  1.39264e+25
      2.12000  1.38320e+25
      2.12500  1.37379e+25
      2.13000  1.36440e+25
      2.13500  1.35502e+25
      2.14000  1.34568e+25
      2.14500  1.33270e+25
      2.15000  1.31704e+25
      2.15500  1.30551e+25
      2.16000  1.28699e+25
      2.16500  1.26925e+25
      2.17000  1.26003e+25
      2.17500  1.25083e+25
      2.18000  1.24166e+25
      2.18500  1.23250e+25
      2.19000  1.23000e+25
      2.19500  1.22425e+25
      2.20000  1.21032e+25
      2.20500  1.19217e+25
      2.21000  1.18000e+25
      2.21500  1.18000e+25
      2.22000  1.17797e+25
      2.22500  1.15999e+25
      2.23000  1.15102e+25
      2.23500  1.14207e+25
      2.24000  1.13314e+25
      2.24500  1.12423e+25
      2.25000  1.11534e+25
      2.25500  1.10647e+25
      2.26000  1.09761e+25
      2.26500  1.08878e+25
      2.27000  1.07996e+25
      2.27500  1.07117e+25
      2.28000  1.05480e+25
      2.28500  1.04364e+25
      2.29000  1.01963e+25
      2.29500  9.93142e+24
      2.30000  9.84007e+24
      2.30500  9.90000e+24
      2.31000  9.90000e+24
      2.31500  9.75566e+24
      2.32000  9.43838e+24
      2.32500  9.20566e+24
      2.33000  9.16733e+24
      2.33500  9.25010e+24
      2.34000  9.29147e+24
      2.34500  9.24028e+24
      2.35000  8.93526e+24
      2.35500  8.71299e+24
      2.36000  8.70522e+24
      2.36500  8.77947e+24
      2.37000  8.79131e+24
      2.37500  8.70871e+24
      2.38000  8.47335e+24
      2.38500  8.26119e+24
      2.39000  8.25330e+24
      2.39500  8.33702e+24
      2.40000  8.39739e+24
      2.40500  8.36861e+24
      2.41000  8.17768e+24
      2.41500  7.94964e+24
      2.42000  7.89156e+24
      2.42500  7.93222e+24
      2.43000  7.97774e+24
      2.43500  7.96378e+24
      2.44000  7.85721e+24
      2.44500  7.67545e+24
      2.45000  7.54979e+24
      2.45500  7.51902e+24
      2.46000  7.56391e+24
      2.46500  7.58826e+24
      2.47000  7.52235e+24
      2.47500  7.39363e+24
      2.48000  7.26236e+24
      2.48500  7.18858e+24
      2.49000  7.22876e+24
      2.49500  7.26883e+24
      2.50000  7.25693e+24
      2.50500  7.19121e+24
      2.51000  7.09103e+24
      2.51500  7.00352e+24
      2.52000  7.00000e+24
      2.52500  7.00000e+24
      2.53000  6.97933e+24
      2.53500  6.92530e+24
      2.54000  6.83866e+24
      2.54500  6.76636e+24
      2.55000  6.71543e+24
      2.55500  6.68451e+24
      2.56000  6.66888e+24
      2.56500  6.65328e+24
      2.57000  6.62544e+24
      2.57500  6.57091e+24
      2.58000  6.49171e+24
      2.58500  6.40657e+24
      2.59000  6.38575e+24
      2.59500  6.38000e+24
      2.60000  6.37495e+24
      2.60500  6.35876e+24
      2.61000  6.31279e+24
      2.61500  6.23379e+24
      2.62000  6.14532e+24
      2.62500  6.07000e+24
      2.63000  6.07000e+24
      2.63500  6.04015e+24
      2.64000  6.00227e+24
      2.64500  5.96667e+24
      2.65000  5.94402e+24
      2.65500  5.89666e+24
      2.66000  5.84773e+24
      2.66500  5.80878e+24
      2.67000  5.80129e+24
      2.67500  5.79381e+24
      2.68000  5.77905e+24
      2.68500  5.75339e+24
      2.69000  5.70878e+24
      2.69500  5.66425e+24
      2.70000  5.62653e+24
      2.70500  5.59695e+24
      2.71000  5.56743e+24
      2.71500  5.53246e+24
      2.72000  5.49568e+24
      2.72500  5.45897e+24
      2.73000  5.42234e+24
      2.73500  5.39063e+24
      2.74000  5.36142e+24
      2.74500  5.33227e+24
      2.75000  5.28977e+24
      2.75500  5.24621e+24
      2.76000  5.20393e+24
      2.76500  5.16776e+24
      2.77000  5.13733e+24
      2.77500  5.10850e+24
      2.78000  5.07978e+24
      2.78500  5.05824e+24
      2.79000  5.03232e+24
      2.79500  5.00211e+24
      2.80000  4.96639e+24
      2.80500  4.93659e+24
      2.81000  4.90515e+24
      2.81500  4.86969e+24
      2.82000  4.84133e+24
      2.82500  4.81301e+24
      2.83000  4.78473e+24
      2.83500  4.75651e+24
      2.84000  4.72293e+24
      2.84500  4.69022e+24
      2.85000  4.66214e+24
      2.85500  4.63413e+24
      2.86000  4.60269e+24
      2.86500  4.56822e+24
      2.87000  4.54035e+24
      2.87500  4.51252e+24
      2.88000  4.48474e+24
      2.88500  4.45701e+24
      2.89000  4.42933e+24
      2.89500  4.40169e+24
      2.90000  4.37410e+24
      2.90500  4.34656e+24
      2.91000  4.31907e+24
      2.91500  4.29162e+24
      2.92000  4.25134e+24
      2.92500  4.21687e+24
      2.93000  4.18967e+24
      2.93500  4.16923e+24
      2.94000  4.14882e+24
      2.94500  4.12792e+24
      2.95000  4.10081e+24
      2.95500  4.07780e+24
      2.96000  4.05753e+24
      2.96500  4.03729e+24
      2.97000  4.01279e+24
      2.97500  3.98589e+24
      2.98000  3.95905e+24
      2.98500  3.93225e+24
      2.99000  3.90549e+24
      2.99500  3.87878e+24
      3.00000  3.85658e+24
      3.00500  3.83548e+24
      3.01000  3.80891e+24
      3.01500  3.78678e+24
      3.02000  3.76588e+24
      3.02500  3.73944e+24
      3.03000  3.71304e+24
      3.03500  3.68667e+24
      3.04000  3.66036e+24
      3.04500  3.64204e+24
      3.05000  3.62785e+24
      3.05500  3.60167e+24
      3.06000  3.57914e+24
      3.06500  3.55956e+24
      3.07000  3.54002e+24
      3.07500  3.51735e+24
      3.08000  3.49136e+24
      3.08500  3.47158e+24
      3.09000  3.45216e+24
      3.09500  3.43277e+24
      3.10000  3.41342e+24
      3.10500  3.39016e+24
      3.11000  3.35800e+24
      3.11500  3.33554e+24
      3.12000  3.31754e+24
      3.12500  3.30474e+24
      3.13000  3.29196e+24
      3.13500  3.27840e+24
      3.14000  3.25293e+24
      3.14500  3.22749e+24
      3.15000  3.20208e+24
      3.15500  3.18255e+24
      3.16000  3.16571e+24
      3.16500  3.15307e+24
      3.17000  3.13568e+24
      3.17500  3.11785e+24
      3.18000  3.10528e+24
      3.18500  3.08908e+24
      3.19000  3.07026e+24
      3.19500  3.05149e+24
      3.20000  3.03274e+24
      3.20500  3.01402e+24
      3.21000  2.99533e+24
      3.21500  2.97666e+24
      3.22000  2.95803e+24
      3.22500  2.93943e+24
      3.23000  2.92085e+24
      3.23500  2.90231e+24
      3.24000  2.88379e+24
      3.24500  2.86530e+24
      3.25000  2.85123e+24
      3.25500  2.83840e+24
      3.26000  2.82000e+24
      3.26500  2.80162e+24
      3.27000  2.78327e+24
      3.27500  2.76496e+24
      3.28000  2.74777e+24
      3.28500  2.73560e+24
      3.29000  2.72016e+24
      3.29500  2.70195e+24
      3.30000  2.68378e+24
      3.30500  2.66562e+24
      3.31000  2.64749e+24
      3.31500  2.62586e+24
      3.32000  2.60176e+24
      3.32500  2.59443e+24
      3.33000  2.58842e+24
      3.33500  2.58242e+24
      3.34000  2.57287e+24
      3.34500  2.56091e+24
      3.35000  2.54347e+24
      3.35500  2.52705e+24
      3.36000  2.51515e+24
      3.36500  2.49990e+24
      3.37000  2.48209e+24
      3.37500  2.46954e+24
      3.38000  2.45656e+24
      3.38500  2.43884e+24
      3.39000  2.42114e+24
      3.39500  2.40347e+24
      3.40000  2.39055e+24
      3.40500  2.37880e+24
      3.41000  2.36707e+24
      3.41500  2.35536e+24
      3.42000  2.34366e+24
      3.42500  2.33199e+24
      3.43000  2.32032e+24
      3.43500  2.30868e+24
      3.44000  2.29705e+24
      3.44500  2.28545e+24
      3.45000  2.27385e+24
      3.45500  2.26227e+24
      3.46000  2.25072e+24
      3.46500  2.23917e+24
      3.47000  2.22765e+24
      3.47500  2.21614e+24
      3.48000  2.20464e+24
      3.48500  2.19317e+24
      3.49000  2.18170e+24
      3.49500  2.17026e+24
      3.50000  2.15883e+24
      3.50500  2.14742e+24
      3.51000  2.13603e+24
      3.51500  2.12465e+24
      3.52000  2.11329e+24
      3.52500  2.10194e+24
      3.53000  2.08592e+24
      3.53500  2.06929e+24
      3.54000  2.05800e+24
      3.54500  2.04836e+24
      3.55000  2.04272e+24
      3.55500  2.03130e+24
      3.56000  2.01444e+24
      3.56500  2.00587e+24
      3.57000  2.00027e+24
      3.57500  1.98935e+24
      3.58000  1.97818e+24
      3.58500  1.96702e+24
      3.59000  1.95588e+24
      3.59500  1.94476e+24
      3.60000  1.93682e+24
      3.60500  1.93128e+24
      3.61000  1.92147e+24
      3.61500  1.91041e+24
      3.62000  1.89936e+24
      3.62500  1.88833e+24
      3.63000  1.87731e+24
      3.63500  1.86631e+24
      3.64000  1.85532e+24
      3.64500  1.84435e+24
      3.65000  1.83339e+24
      3.65500  1.82245e+24
      3.66000  1.81152e+24
      3.66500  1.80061e+24
      3.67000  1.78955e+24
      3.67500  1.77324e+24
      3.68000  1.75898e+24
      3.68500  1.75355e+24
      3.69000  1.74439e+24
      3.69500  1.72816e+24
      3.70000  1.71463e+24
      3.70500  1.70384e+24
      3.71000  1.70000e+24
      3.71500  1.70000e+24
      3.72000  1.69577e+24
      3.72500  1.69040e+24
      3.73000  1.68008e+24
      3.73500  1.66905e+24
      3.74000  1.65302e+24
      3.74500  1.63900e+24
      3.75000  1.63367e+24
      3.75500  1.62834e+24
      3.76000  1.62302e+24
      3.76500  1.61771e+24
      3.77000  1.61241e+24
      3.77500  1.60422e+24
      3.78000  1.59364e+24
      3.78500  1.58654e+24
      3.79000  1.58126e+24
      3.79500  1.57599e+24
      3.80000  1.57073e+24
      3.80500  1.56095e+24
      3.81000  1.55044e+24
      3.81500  1.54498e+24
      3.82000  1.53974e+24
      3.82500  1.53452e+24
      3.83000  1.52930e+24
      3.83500  1.52408e+24
      3.84000  1.51775e+24
      3.84500  1.50735e+24
      3.85000  1.49696e+24
      3.85500  1.48659e+24
      3.86000  1.47811e+24
      3.86500  1.47294e+24
      3.87000  1.46554e+24
      3.87500  1.45522e+24
      3.88000  1.44746e+24
      3.88500  1.44231e+24
      3.89000  1.43717e+24
      3.89500  1.43204e+24
      3.90000  1.42691e+24
      3.90500  1.42179e+24
      3.91000  1.41335e+24
      3.91500  1.40313e+24
      3.92000  1.39646e+24
      3.92500  1.39137e+24
      3.93000  1.38628e+24
      3.93500  1.38120e+24
      3.94000  1.37225e+24
      3.94500  1.36211e+24
      3.95000  1.35199e+24
      3.95500  1.34187e+24
      3.96000  1.33589e+24
      3.96500  1.33084e+24
      3.97000  1.32581e+24
      3.97500  1.32078e+24
      3.98000  1.31151e+24
      3.98500  1.30147e+24
      3.99000  1.29572e+24
      3.99500  1.29072e+24
      4.00000  1.28572e+24
      4.00500  1.28072e+24
      4.01000  1.27574e+24
      4.01500  1.27076e+24
      4.02000  1.26578e+24
      4.02500  1.26081e+24
      4.03000  1.25585e+24
      4.03500  1.25090e+24
      4.04000  1.24190e+24
      4.04500  1.23201e+24
      4.05000  1.22607e+24
      4.05500  1.22114e+24
      4.06000  1.21621e+24
      4.06500  1.21129e+24
      4.07000  1.20638e+24
      4.07500  1.20147e+24
      4.08000  1.19657e+24
      4.08500  1.19167e+24
      4.09000  1.18679e+24
      4.09500  1.18190e+24
      4.10000  1.17703e+24
      4.10500  1.17215e+24
      4.11000  1.16729e+24
      4.11500  1.16243e+24
      4.12000  1.15758e+24
      4.12500  1.15273e+24
      4.13000  1.14789e+24
      4.13500  1.14305e+24
      4.14000  1.13644e+24
      4.14500  1.12680e+24
      4.15000  1.11858e+24
      4.15500  1.11377e+24
      4.16000  1.10896e+24
      4.16500  1.10416e+24
      4.17000  1.09936e+24
      4.17500  1.09458e+24
      4.18000  1.08979e+24
      4.18500  1.08501e+24
      4.19000  1.08024e+24
      4.19500  1.07095e+24
      4.20000  1.06142e+24
      4.20500  1.05596e+24
      4.21000  1.05121e+24
      4.21500  1.05000e+24
      4.22000  1.05000e+24
      4.22500  1.04699e+24
      4.23000  1.04227e+24
      4.23500  1.03754e+24
      4.24000  1.03283e+24
      4.24500  1.02812e+24
      4.25000  1.02341e+24
      4.25500  1.01871e+24
      4.26000  1.01402e+24
      4.26500  1.00933e+24
      4.27000  1.00465e+24
      4.27500  9.99869e+23
      4.28000  9.80260e+23
      4.28500  9.60654e+23
      4.29000  9.25381e+23
      4.29500  8.87656e+23
      4.30000  8.65667e+23
      4.30500  8.49873e+23
      4.31000  8.44571e+23
      4.31500  8.47351e+23
      4.32000  8.49000e+23
      4.32500  8.49000e+23
      4.33000  8.46530e+23
      4.33500  8.36386e+23
      4.34000  8.25249e+23
      4.34500  8.01794e+23
      4.35000  7.78338e+23
      4.35500  7.62782e+23
      4.36000  7.48101e+23
      4.36500  7.43670e+23
      4.37000  7.43213e+23
      4.37500  7.42511e+23
      4.38000  7.41598e+23
      4.38500  7.38645e+23
      4.39000  7.31815e+23
      4.39500  7.23569e+23
      4.40000  7.07217e+23
      4.40500  6.90866e+23
      4.41000  6.77986e+23
      4.41500  6.65299e+23
      4.42000  6.62000e+23
      4.42500  6.62000e+23
      4.43000  6.62238e+23
      4.43500  6.62688e+23
      4.44000  6.62027e+23
      4.44500  6.58880e+23
      4.45000  6.55274e+23
      4.45500  6.46751e+23
      4.46000  6.38228e+23
      4.46500  6.29341e+23
      4.47000  6.20392e+23
      4.47500  6.16446e+23
      4.48000  6.15553e+23
      4.48500  6.15339e+23
      4.49000  6.16229e+23
      4.49500  6.16523e+23
      4.50000  6.12970e+23
      4.50500  6.09417e+23
      4.51000  6.03136e+23
      4.51500  5.96492e+23
      4.52000  5.90133e+23
      4.52500  5.83947e+23
      4.53000  5.79681e+23
      4.53500  5.78799e+23
      4.54000  5.78123e+23
      4.54500  5.79442e+23
      4.55000  5.80761e+23
      4.55500  5.80282e+23
      4.56000  5.79405e+23
      4.56500  5.76643e+23
      4.57000  5.72268e+23
      4.57500  5.67566e+23
      4.58000  5.61893e+23
      4.58500  5.56220e+23
      4.59000  5.54745e+23
      4.59500  5.53439e+23
      4.60000  5.53577e+23
      4.60500  5.54445e+23
      4.61000  5.55000e+23
      4.61500  5.55000e+23
      4.62000  5.54978e+23
      4.62500  5.54545e+23
      4.63000  5.54113e+23
      4.63500  5.52411e+23
      4.64000  5.50256e+23
      4.64500  5.48821e+23
      4.65000  5.48391e+23
      4.65500  5.48117e+23
      4.66000  5.49403e+23
      4.66500  5.50690e+23
      4.67000  5.50351e+23
      4.67500  5.49495e+23
      4.68000  5.48282e+23
      4.68500  5.46575e+23
      4.69000  5.44803e+23
      4.69500  5.42249e+23
      4.70000  5.39696e+23
      4.70500  5.38073e+23
      4.71000  5.36800e+23
      4.71500  5.36000e+23
      4.72000  5.36000e+23
      4.72500  5.35977e+23
      4.73000  5.33865e+23
      4.73500  5.31753e+23
      4.74000  5.29916e+23
      4.74500  5.28230e+23
      4.75000  5.26432e+23
      4.75500  5.24331e+23
      4.76000  5.22229e+23
      4.76500  5.19759e+23
      4.77000  5.17243e+23
      4.77500  5.14942e+23
      4.78000  5.12851e+23
      4.78500  5.10857e+23
      4.79000  5.09605e+23
      4.79500  5.08353e+23
      4.80000  5.07403e+23
      4.80500  5.06571e+23
      4.81000  5.06261e+23
      4.81500  5.07091e+23
      4.82000  5.07921e+23
      4.82500  5.08000e+23
      4.83000  5.08000e+23
      4.83500  5.06988e+23
      4.84000  5.04923e+23
      4.84500  5.02830e+23
      4.85000  5.00358e+23
      4.85500  4.97886e+23
      4.86000  4.94891e+23
      4.86500  4.91604e+23
      4.87000  4.88488e+23
      4.87500  4.86029e+23
      4.88000  4.83569e+23
      4.88500  4.83000e+23
      4.89000  4.83000e+23
      4.89500  4.82341e+23
      4.90000  4.80302e+23
      4.90500  4.78262e+23
      4.91000  4.75164e+23
      4.91500  4.71909e+23
      4.92000  4.69161e+23
      4.92500  4.67132e+23
      4.93000  4.65103e+23
      4.93500  4.63463e+23
      4.94000  4.61843e+23
      4.94500  4.60419e+23
      4.95000  4.59208e+23
      4.95500  4.57998e+23
      4.96000  4.57192e+23
      4.96500  4.56386e+23
      4.97000  4.55164e+23
      4.97500  4.53556e+23
      4.98000  4.51899e+23
      4.98500  4.48692e+23
      4.99000  4.45486e+23
      4.99500  4.42713e+23
      5.00000  4.40314e+23
      5.00500  4.37944e+23
      5.01000  4.36349e+23
      5.01500  4.34753e+23
      5.02000  4.34000e+23
      5.02500  4.34000e+23
      5.03000  4.34011e+23
      5.03500  4.34805e+23
      5.04000  4.35598e+23
      5.04500  4.35609e+23
      5.05000  4.34817e+23
      5.05500  4.34026e+23
      5.06000  4.31709e+23
      5.06500  4.29339e+23
      5.07000  4.26802e+23
      5.07500  4.24045e+23
      5.08000  4.21288e+23
      5.08500  4.18889e+23
      5.09000  4.16532e+23
      5.09500  4.14589e+23
      5.10000  4.13413e+23
      5.10500  4.12237e+23
      5.11000  4.12000e+23
      5.11500  4.12000e+23
      5.12000  4.12000e+23
      5.12500  4.12000e+23
      5.13000  4.12000e+23
      5.13500  4.10687e+23
      5.14000  4.08742e+23
      5.14500  4.06879e+23
      5.15000  4.05715e+23
      5.15500  4.04551e+23
      5.16000  4.03592e+23
      5.16500  4.02818e+23
      5.17000  4.02044e+23
      5.17500  4.00908e+23
      5.18000  3.99750e+23
      5.18500  3.98593e+23
      5.19000  3.97438e+23
      5.19500  3.96283e+23
      5.20000  3.95130e+23
      5.20500  3.93977e+23
      5.21000  3.92651e+23
      5.21500  3.90352e+23
      5.22000  3.88053e+23
      5.22500  3.86172e+23
      5.23000  3.84643e+23
      5.23500  3.83114e+23
      5.24000  3.82647e+23
      5.24500  3.82266e+23
      5.25000  3.81770e+23
      5.25500  3.81010e+23
      5.26000  3.80249e+23
      5.26500  3.79490e+23
      5.27000  3.78731e+23
      5.27500  3.77959e+23
      5.28000  3.76823e+23
      5.28500  3.75688e+23
      5.29000  3.74406e+23
      5.29500  3.72896e+23
      5.30000  3.71386e+23
      5.30500  3.70160e+23
      5.31000  3.69030e+23
      5.31500  3.67934e+23
      5.32000  3.67183e+23
      5.32500  3.66432e+23
      5.33000  3.65681e+23
      5.33500  3.64932e+23
      5.34000  3.64183e+23
      5.34500  3.63435e+23
      5.35000  3.62688e+23
      5.35500  3.61940e+23
      5.36000  3.61195e+23
      5.36500  3.60450e+23
      5.37000  3.59410e+23
      5.37500  3.57922e+23
      5.38000  3.56435e+23
      5.38500  3.55475e+23
      5.39000  3.54733e+23
      5.39500  3.53988e+23
      5.40000  3.52878e+23
      5.40500  3.51768e+23
      5.41000  3.50659e+23
      5.41500  3.49552e+23
      5.42000  3.48444e+23
      5.42500  3.47780e+23
      5.43000  3.47412e+23
      5.43500  3.47043e+23
      5.44000  3.45705e+23
      5.44500  3.44236e+23
      5.45000  3.42768e+23
      5.45500  3.41303e+23
      5.46000  3.39837e+23
      5.46500  3.38687e+23
      5.47000  3.37956e+23
      5.47500  3.37226e+23
      5.48000  3.36496e+23
      5.48500  3.35767e+23
      5.49000  3.35038e+23
      5.49500  3.34656e+23
      5.50000  3.34292e+23
      5.50500  3.33857e+23
      5.51000  3.33132e+23
      5.51500  3.32407e+23
      5.52000  3.31682e+23
      5.52500  3.30959e+23
      5.53000  3.30235e+23
      5.53500  3.29270e+23
      5.54000  3.28187e+23
      5.54500  3.27105e+23
      5.55000  3.26350e+23
      5.55500  3.25630e+23
      5.56000  3.24955e+23
      5.56500  3.24596e+23
      5.57000  3.24237e+23
      5.57500  3.23636e+23
      5.58000  3.22561e+23
      5.58500  3.21487e+23
      5.59000  3.20609e+23
      5.59500  3.19895e+23
      5.60000  3.19180e+23
      5.60500  3.18467e+23
      5.61000  3.17755e+23
      5.61500  3.17042e+23
      5.62000  3.15662e+23
      5.62500  3.14240e+23
      5.63000  3.12909e+23
      5.63500  3.12200e+23
      5.64000  3.11491e+23
      5.64500  3.10891e+23
      5.65000  3.10538e+23
      5.65500  3.10184e+23
      5.66000  3.09492e+23
      5.66500  3.08434e+23
      5.67000  3.07376e+23
      5.67500  3.06546e+23
      5.68000  3.05842e+23
      5.68500  3.05138e+23
      5.69000  3.04718e+23
      5.69500  3.04367e+23
      5.70000  3.04016e+23
      5.70500  3.03332e+23
      5.71000  3.02631e+23
      5.71500  3.01897e+23
      5.72000  3.00849e+23
      5.72500  2.99801e+23
      5.73000  2.98918e+23
      5.73500  2.98570e+23
      5.74000  2.98221e+23
      5.74500  2.97746e+23
      5.75000  2.97051e+23
      5.75500  2.96356e+23
      5.76000  2.95493e+23
      5.76500  2.94453e+23
      5.77000  2.93413e+23
      5.77500  2.92583e+23
      5.78000  2.91891e+23
      5.78500  2.91200e+23
      5.79000  2.90509e+23
      5.79500  2.89820e+23
      5.80000  2.89130e+23
      5.80500  2.88162e+23
      5.81000  2.87130e+23
      5.81500  2.86098e+23
      5.82000  2.85378e+23
      5.82500  2.84692e+23
      5.83000  2.84006e+23
      5.83500  2.83321e+23
      5.84000  2.82636e+23
      5.84500  2.81928e+23
      5.85000  2.80903e+23
      5.85500  2.79879e+23
      5.86000  2.78903e+23
      5.86500  2.78222e+23
      5.87000  2.77540e+23
      5.87500  2.76789e+23
      5.88000  2.75770e+23
      5.88500  2.74750e+23
      5.89000  2.73911e+23
      5.89500  2.73572e+23
      5.90000  2.73233e+23
      5.90500  2.72788e+23
      5.91000  2.72112e+23
      5.91500  2.71436e+23
      5.92000  2.70760e+23
      5.92500  2.70086e+23
      5.93000  2.69411e+23
      5.93500  2.68606e+23
      5.94000  2.67597e+23
      5.94500  2.66587e+23
      5.95000  2.65860e+23
      5.95500  2.65524e+23
      5.96000  2.65189e+23
      5.96500  2.64707e+23
      5.97000  2.64038e+23
      5.97500  2.63368e+23
      5.98000  2.62699e+23
      5.98500  2.62032e+23
      5.99000  2.61364e+23
      5.99500  2.60545e+23
      6.00000  2.59546e+23
      6.00500  2.58547e+23
      6.01000  2.57699e+23
      6.01500  2.57035e+23
      6.02000  2.56370e+23
      6.02500  2.55707e+23
      6.03000  2.55044e+23
      6.03500  2.54381e+23
      6.04000  2.53719e+23
      6.04500  2.53058e+23
      6.05000  2.52397e+23
      6.05500  2.51736e+23
      6.06000  2.51077e+23
      6.06500  2.50417e+23
      6.07000  2.49638e+23
      6.07500  2.48651e+23
      6.08000  2.47664e+23
      6.08500  2.46785e+23
      6.09000  2.46129e+23
      6.09500  2.45473e+23
      6.10000  2.44817e+23
      6.10500  2.44163e+23
      6.11000  2.43508e+23
      6.11500  2.42854e+23
      6.12000  2.42201e+23
      6.12500  2.41548e+23
      6.13000  2.40948e+23
      6.13500  2.40622e+23
      6.14000  2.40297e+23
      6.14500  2.39942e+23
      6.15000  2.39292e+23
      6.15500  2.38643e+23
      6.16000  2.37993e+23
      6.16500  2.37345e+23
      6.17000  2.36697e+23
      6.17500  2.36049e+23
      6.18000  2.35402e+23
      6.18500  2.34756e+23
      6.19000  2.34110e+23
      6.19500  2.33197e+23
      6.20000  2.32230e+23
      6.20500  2.31262e+23
      6.21000  2.30531e+23
      6.21500  2.29888e+23
      6.22000  2.29245e+23
      6.22500  2.28603e+23
      6.23000  2.27961e+23
      6.23500  2.27320e+23
      6.24000  2.26679e+23
      6.24500  2.26039e+23
      6.25000  2.25399e+23
      6.25500  2.24760e+23
      6.26000  2.24121e+23
      6.26500  2.23483e+23
      6.27000  2.22922e+23
      6.27500  2.22604e+23
      6.28000  2.22286e+23
      6.28500  2.21935e+23
      6.29000  2.21299e+23
      6.29500  2.20664e+23
      6.30000  2.20029e+23
      6.30500  2.19395e+23
      6.31000  2.18762e+23
      6.31500  2.18128e+23
      6.32000  2.17496e+23
      6.32500  2.16864e+23
      6.33000  2.16232e+23
      6.33500  2.15601e+23
      6.34000  2.14970e+23
      6.34500  2.14340e+23
      6.35000  2.13710e+23
      6.35500  2.13081e+23
      6.36000  2.12453e+23
      6.36500  2.11824e+23
      6.37000  2.11197e+23
      6.37500  2.10570e+23
      6.38000  2.09971e+23
      6.38500  2.09658e+23
      6.39000  2.09345e+23
      6.39500  2.09033e+23
      6.40000  2.08441e+23
      6.40500  2.07817e+23
      6.41000  2.07193e+23
      6.41500  2.06570e+23
      6.42000  2.05947e+23
      6.42500  2.05324e+23
      6.43000  2.04702e+23
      6.43500  2.04081e+23
      6.44000  2.03460e+23
      6.44500  2.02840e+23
      6.45000  2.02220e+23
      6.45500  2.01601e+23
      6.46000  2.00981e+23
      6.46500  2.00363e+23
      6.47000  1.99745e+23
      6.47500  1.99128e+23
      6.48000  1.98511e+23
      6.48500  1.97894e+23
      6.49000  1.97278e+23
      6.49500  1.96831e+23
      6.50000  1.96524e+23
      6.50500  1.96216e+23
      6.51000  1.95818e+23
      6.51500  1.95205e+23
      6.52000  1.94592e+23
      6.52500  1.93978e+23
      6.53000  1.93367e+23
      6.53500  1.92755e+23
      6.54000  1.92143e+23
      6.54500  1.91532e+23
      6.55000  1.90922e+23
      6.55500  1.90312e+23
      6.56000  1.89851e+23
      6.56500  1.89547e+23
      6.57000  1.89242e+23
      6.57500  1.88877e+23
      6.58000  1.88269e+23
      6.58500  1.87662e+23
      6.59000  1.87055e+23
      6.59500  1.86449e+23
      6.60000  1.85843e+23
      6.60500  1.85238e+23
      6.61000  1.84633e+23
      6.61500  1.84029e+23
      6.62000  1.83425e+23
      6.62500  1.82910e+23
      6.63000  1.82609e+23
      6.63500  1.82308e+23
      6.64000  1.82006e+23
      6.64500  1.81412e+23
      6.65000  1.80810e+23
      6.65500  1.80209e+23
      6.66000  1.79609e+23
      6.66500  1.79009e+23
      6.67000  1.78410e+23
      6.67500  1.77905e+23
      6.68000  1.77606e+23
      6.68500  1.77307e+23
      6.69000  1.77008e+23
      6.69500  1.76419e+23
      6.70000  1.75823e+23
      6.70500  1.75226e+23
      6.71000  1.74630e+23
      6.71500  1.74035e+23
      6.72000  1.73440e+23
      6.72500  1.72923e+23
      6.73000  1.72626e+23
      6.73500  1.72329e+23
      6.74000  1.72032e+23
      6.74500  1.71472e+23
      6.75000  1.70879e+23
      6.75500  1.70287e+23
      6.76000  1.69696e+23
      6.76500  1.69105e+23
      6.77000  1.68514e+23
      6.77500  1.67962e+23
      6.78000  1.67667e+23
      6.78500  1.67373e+23
      6.79000  1.67078e+23
      6.79500  1.66568e+23
      6.80000  1.65980e+23
      6.80500  1.65392e+23
      6.81000  1.64903e+23
      6.81500  1.64609e+23
      6.82000  1.64316e+23
      6.82500  1.64023e+23
      6.83000  1.63461e+23
      6.83500  1.62876e+23
      6.84000  1.62291e+23
      6.84500  1.61854e+23
      6.85000  1.61562e+23
      6.85500  1.61270e+23
      6.86000  1.60957e+23
      6.86500  1.60375e+23
      6.87000  1.59793e+23
      6.87500  1.59211e+23
      6.88000  1.58630e+23
      6.88500  1.58050e+23
      6.89000  1.57470e+23
      6.89500  1.56945e+23
      6.90000  1.56655e+23
      6.90500  1.56366e+23
      6.91000  1.56076e+23
      6.91500  1.55574e+23
      6.92000  1.54997e+23
      6.92500  1.54419e+23
      6.93000  1.53921e+23
      6.93500  1.53633e+23
      6.94000  1.53345e+23
      6.94500  1.53057e+23
      6.95000  1.52769e+23
      6.95500  1.52482e+23
      6.96000  1.52195e+23
      6.96500  1.51815e+23
      6.97000  1.51242e+23
      6.97500  1.50668e+23
      6.98000  1.50095e+23
      6.98500  1.49762e+23
      6.99000  1.49476e+23
      6.99500  1.49190e+23
      7.00000  1.48808e+23
      7.00500  1.48238e+23
      7.01000  1.47667e+23
      7.01500  1.47097e+23
      7.02000  1.46764e+23
      7.02500  1.46479e+23
      7.03000  1.46195e+23
      7.03500  1.45821e+23
      7.04000  1.45254e+23
      7.04500  1.44686e+23
      7.05000  1.44119e+23
      7.05500  1.43776e+23
      7.06000  1.43493e+23
      7.06500  1.43210e+23
      7.07000  1.42927e+23
      7.07500  1.42645e+23
      7.08000  1.42362e+23
      7.08500  1.42080e+23
      7.09000  1.41596e+23
      7.09500  1.41033e+23
      7.10000  1.40470e+23
      7.10500  1.39953e+23
      7.11000  1.39672e+23
      7.11500  1.39391e+23
      7.12000  1.39110e+23
      7.12500  1.38830e+23
      7.13000  1.38550e+23
      7.13500  1.38269e+23
      7.14000  1.37979e+23
      7.14500  1.37419e+23
      7.15000  1.36860e+23
      7.15500  1.36301e+23
      7.16000  1.35871e+23
      7.16500  1.35593e+23
      7.17000  1.35314e+23
      7.17500  1.35035e+23
      7.18000  1.34757e+23
      7.18500  1.34478e+23
      7.19000  1.34200e+23
      7.19500  1.33845e+23
      7.20000  1.33290e+23
      7.20500  1.32735e+23
      7.21000  1.32180e+23
      7.21500  1.31813e+23
      7.22000  1.31536e+23
      7.22500  1.31259e+23
      7.23000  1.30983e+23
      7.23500  1.30707e+23
      7.24000  1.30431e+23
      7.24500  1.30155e+23
      7.25000  1.29879e+23
      7.25500  1.29603e+23
      7.26000  1.29328e+23
      7.26500  1.29053e+23
      7.27000  1.28556e+23
      7.27500  1.28006e+23
      7.28000  1.27457e+23
      7.28500  1.26954e+23
      7.29000  1.26680e+23
      7.29500  1.26406e+23
      7.30000  1.26132e+23
      7.30500  1.25858e+23
      7.31000  1.25585e+23
      7.31500  1.25312e+23
      7.32000  1.25038e+23
      7.32500  1.24765e+23
      7.33000  1.24493e+23
      7.33500  1.24220e+23
      7.34000  1.23895e+23
      7.34500  1.23352e+23
      7.35000  1.22808e+23
      7.35500  1.22264e+23
      7.36000  1.21860e+23
      7.36500  1.21589e+23
      7.37000  1.21318e+23
      7.37500  1.21046e+23
      7.38000  1.20776e+23
      7.38500  1.20505e+23
      7.39000  1.20234e+23
      7.39500  1.19964e+23
      7.40000  1.19694e+23
      7.40500  1.19424e+23
      7.41000  1.19154e+23
      7.41500  1.18769e+23
      7.42000  1.18231e+23
      7.42500  1.17692e+23
      7.43000  1.17154e+23
      7.43500  1.16808e+23
      7.44000  1.16539e+23
      7.44500  1.16271e+23
      7.45000  1.16002e+23
      7.45500  1.15734e+23
      7.46000  1.15466e+23
      7.46500  1.15199e+23
      7.47000  1.14931e+23
      7.47500  1.14664e+23
      7.48000  1.14396e+23
      7.48500  1.14129e+23
      7.49000  1.13862e+23
      7.49500  1.13596e+23
      7.50000  1.13329e+23
      7.50500  1.13063e+23
      7.51000  1.12796e+23
      7.51500  1.12531e+23
      7.52000  1.12265e+23
      7.52500  1.11999e+23
      7.53000  1.11734e+23
      7.53500  1.11468e+23
      7.54000  1.11203e+23
      7.54500  1.10938e+23
      7.55000  1.10673e+23
      7.55500  1.10409e+23
      7.56000  1.10144e+23
      7.56500  1.09880e+23
      7.57000  1.09616e+23
      7.57500  1.09352e+23
      7.58000  1.09088e+23
      7.58500  1.08825e+23
      7.59000  1.08562e+23
      7.59500  1.08298e+23
      7.60000  1.08035e+23
      7.60500  1.07772e+23
      7.61000  1.07510e+23
      7.61500  1.07247e+23
      7.62000  1.06985e+23
      7.62500  1.06723e+23
      7.63000  1.06461e+23
      7.63500  1.06199e+23
      7.64000  1.05937e+23
      7.64500  1.05676e+23
      7.65000  1.05414e+23
      7.65500  1.05153e+23
      7.66000  1.04892e+23
      7.66500  1.04631e+23
      7.67000  1.04371e+23
      7.67500  1.04110e+23
      7.68000  1.03850e+23
      7.68500  1.03590e+23
      7.69000  1.03330e+23
      7.69500  1.03070e+23
      7.70000  1.02811e+23
      7.70500  1.02551e+23
      7.71000  1.02292e+23
      7.71500  1.02033e+23
      7.72000  1.01774e+23
      7.72500  1.01515e+23
      7.73000  1.01256e+23
      7.73500  1.00997e+23
      7.74000  1.00688e+23
      7.74500  1.00378e+23
      7.75000  1.00068e+23
      7.75500  9.97657e+22
      7.76000  9.95083e+22
      7.76500  9.92509e+22
      7.77000  9.89935e+22
      7.77500  9.87362e+22
      7.78000  9.84795e+22
      7.78500  9.82228e+22
      7.79000  9.79660e+22
      7.79500  9.77185e+22
      7.80000  9.74880e+22
      7.80500  9.72575e+22
      7.81000  9.70270e+22
      7.81500  9.67853e+22
      7.82000  9.65299e+22
      7.82500  9.62744e+22
      7.83000  9.60189e+22
      7.83500  9.57774e+22
      7.84000  9.55481e+22
      7.84500  9.53187e+22
      7.85000  9.50894e+22
      7.85500  9.48604e+22
      7.86000  9.46316e+22
      7.86500  9.44029e+22
      7.87000  9.41741e+22
      7.87500  9.39457e+22
      7.88000  9.37175e+22
      7.88500  9.34893e+22
      7.89000  9.32611e+22
      7.89500  9.30148e+22
      7.90000  9.27618e+22
      7.90500  9.25089e+22
      7.91000  9.22560e+22
      7.91500  9.20232e+22
      7.92000  9.17961e+22
      7.92500  9.15691e+22
      7.93000  9.13420e+22
      7.93500  9.11359e+22
      7.94000  9.09346e+22
      7.94500  9.07333e+22
      7.95000  9.05320e+22
      7.95500  9.03099e+22
      7.96000  9.00840e+22
      7.96500  8.98581e+22
      7.97000  8.96321e+22
      7.97500  8.94067e+22
      7.98000  8.91813e+22
      7.98500  8.89560e+22
      7.99000  8.87306e+22
      7.99500  8.85057e+22
      8.00000  8.82809e+22
      8.00500  8.80561e+22
      8.01000  8.78313e+22
      8.01500  8.76070e+22
      8.02000  8.73827e+22
      8.02500  8.71585e+22
      8.03000  8.69343e+22
      8.03500  8.67105e+22
      8.04000  8.64868e+22
      8.04500  8.62632e+22
      8.05000  8.60395e+22
      8.05500  8.58367e+22
      8.06000  8.56383e+22
      8.06500  8.54400e+22
      8.07000  8.52417e+22
      8.07500  8.50438e+22
      8.08000  8.48459e+22
      8.08500  8.46481e+22
      8.09000  8.44503e+22
      8.09500  8.42528e+22
      8.10000  8.40554e+22
      8.10500  8.38581e+22
      8.11000  8.36608e+22
      8.11500  8.34468e+22
      8.12000  8.32253e+22
      8.12500  8.30039e+22
      8.13000  8.27824e+22
      8.13500  8.25767e+22
      8.14000  8.23803e+22
      8.14500  8.21840e+22
      8.15000  8.19876e+22
      8.15500  8.17916e+22
      8.16000  8.15957e+22
      8.16500  8.13998e+22
      8.17000  8.12040e+22
      8.17500  8.10198e+22
      8.18000  8.08488e+22
      8.18500  8.06779e+22
      8.19000  8.05070e+22
      8.19500  8.03270e+22
      8.20000  8.01321e+22
      8.20500  7.99373e+22
      8.21000  7.97424e+22
      8.21500  7.95476e+22
      8.22000  7.93532e+22
      8.22500  7.91588e+22
      8.23000  7.89644e+22
      8.23500  7.87738e+22
      8.24000  7.86042e+22
      8.24500  7.84345e+22
      8.25000  7.82648e+22
      8.25500  7.80944e+22
      8.26000  7.79010e+22
      8.26500  7.77076e+22
      8.27000  7.75142e+22
      8.27500  7.73208e+22
      8.28000  7.71493e+22
      8.28500  7.69805e+22
      8.29000  7.68116e+22
      8.29500  7.66428e+22
      8.30000  7.64563e+22
      8.30500  7.62639e+22
      8.31000  7.60714e+22
      8.31500  7.58790e+22
      8.32000  7.56868e+22
      8.32500  7.54948e+22
      8.33000  7.53028e+22
      8.33500  7.51108e+22
      8.34000  7.49291e+22
      8.34500  7.47616e+22
      8.35000  7.45940e+22
      8.35500  7.44265e+22
      8.36000  7.42531e+22
      8.36500  7.40621e+22
      8.37000  7.38711e+22
      8.37500  7.36801e+22
      8.38000  7.34904e+22
      8.38500  7.33237e+22
      8.39000  7.31570e+22
      8.39500  7.29902e+22
      8.40000  7.28235e+22
      8.40500  7.26776e+22
      8.41000  7.25350e+22
      8.41500  7.23925e+22
      8.42000  7.22499e+22
      8.42500  7.20922e+22
      8.43000  7.19263e+22
      8.43500  7.17604e+22
      8.44000  7.15945e+22
      8.44500  7.14288e+22
      8.45000  7.12633e+22
      8.45500  7.10978e+22
      8.46000  7.09323e+22
      8.46500  7.07669e+22
      8.47000  7.06019e+22
      8.47500  7.04368e+22
      8.48000  7.02718e+22
      8.48500  7.01067e+22
      8.49000  6.99420e+22
      8.49500  6.97773e+22
      8.50000  6.96127e+22
      8.50500  6.94480e+22
      8.51000  6.92837e+22
      8.51500  6.91194e+22
      8.52000  6.89552e+22
      8.52500  6.87909e+22
      8.53000  6.86373e+22
      8.53500  6.84969e+22
      8.54000  6.83565e+22
      8.54500  6.82160e+22
      8.55000  6.80716e+22
      8.55500  6.79082e+22
      8.56000  6.77447e+22
      8.56500  6.75813e+22
      8.57000  6.74179e+22
      8.57500  6.72549e+22
      8.58000  6.70918e+22
      8.58500  6.69288e+22
      8.59000  6.67658e+22
      8.59500  6.66169e+22
      8.60000  6.64775e+22
      8.60500  6.63381e+22
      8.61000  6.61988e+22
      8.61500  6.60595e+22
      8.62000  6.59204e+22
      8.62500  6.57814e+22
      8.63000  6.56424e+22
      8.63500  6.55033e+22
      8.64000  6.53421e+22
      8.64500  6.51803e+22
      8.65000  6.50185e+22
      8.65500  6.48567e+22
      8.66000  6.47102e+22
      8.66500  6.45718e+22
      8.67000  6.44335e+22
      8.67500  6.42951e+22
      8.68000  6.41569e+22
      8.68500  6.40189e+22
      8.69000  6.38809e+22
      8.69500  6.37429e+22
      8.70000  6.36050e+22
      8.70500  6.34452e+22
      8.71000  6.32846e+22
      8.71500  6.31240e+22
      8.72000  6.29634e+22
      8.72500  6.28169e+22
      8.73000  6.26796e+22
      8.73500  6.25423e+22
      8.74000  6.24050e+22
      8.74500  6.22678e+22
      8.75000  6.21308e+22
      8.75500  6.19939e+22
      8.76000  6.18569e+22
      8.76500  6.17200e+22
      8.77000  6.15833e+22
      8.77500  6.14467e+22
      8.78000  6.13101e+22
      8.78500  6.11735e+22
      8.79000  6.10265e+22
      8.79500  6.08675e+22
      8.80000  6.07085e+22
      8.80500  6.05495e+22
      8.81000  6.03932e+22
      8.81500  6.02800e+22
      8.82000  6.01667e+22
      8.82500  6.00534e+22
      8.83000  5.99401e+22
      8.83500  5.97979e+22
      8.84000  5.96397e+22
      8.84500  5.94815e+22
      8.85000  5.93233e+22
      8.85500  5.91702e+22
      8.86000  5.90349e+22
      8.86500  5.88996e+22
      8.87000  5.87644e+22
      8.87500  5.86291e+22
      8.88000  5.85118e+22
      8.88500  5.83993e+22
      8.89000  5.82869e+22
      8.89500  5.81745e+22
      8.90000  5.80622e+22
      8.90500  5.79500e+22
      8.91000  5.78379e+22
      8.91500  5.77257e+22
      8.92000  5.76135e+22
      8.92500  5.74820e+22
      8.93000  5.73477e+22
      8.93500  5.72135e+22
      8.94000  5.70792e+22
      8.94500  5.69451e+22
      8.95000  5.68112e+22
      8.95500  5.66773e+22
      8.96000  5.65434e+22
      8.96500  5.64095e+22
      8.97000  5.62966e+22
      8.97500  5.61853e+22
      8.98000  5.60740e+22
      8.98500  5.59626e+22
      8.99000  5.58515e+22
      8.99500  5.57404e+22
      9.00000  5.56294e+22
      9.00500  5.55183e+22
      9.01000  5.54073e+22
      9.01500  5.52758e+22
      9.02000  5.51429e+22
      9.02500  5.50100e+22
      9.03000  5.48771e+22
      9.03500  5.47536e+22
      9.04000  5.46432e+22
      9.04500  5.45327e+22
      9.05000  5.44222e+22
      9.05500  5.43117e+22
      9.06000  5.41818e+22
      9.06500  5.40495e+22
      9.07000  5.39173e+22
      9.07500  5.37850e+22
      9.08000  5.36608e+22
      9.08500  5.35508e+22
      9.09000  5.34409e+22
      9.09500  5.33310e+22
      9.10000  5.32210e+22
      9.10500  5.31113e+22
      9.11000  5.30017e+22
      9.11500  5.28920e+22
      9.12000  5.27824e+22
      9.12500  5.26728e+22
      9.13000  5.25634e+22
      9.13500  5.24540e+22
      9.14000  5.23446e+22
      9.14500  5.22353e+22
      9.15000  5.21261e+22
      9.15500  5.20170e+22
      9.16000  5.19079e+22
      9.16500  5.17988e+22
      9.17000  5.16897e+22
      9.17500  5.15808e+22
      9.18000  5.14720e+22
      9.18500  5.13632e+22
      9.19000  5.12544e+22
      9.19500  5.11457e+22
      9.20000  5.10371e+22
      9.20500  5.09285e+22
      9.21000  5.08200e+22
      9.21500  5.07114e+22
      9.22000  5.06031e+22
      9.22500  5.04948e+22
      9.23000  5.03865e+22
      9.23500  5.02782e+22
      9.24000  5.01700e+22
      9.24500  5.00620e+22
      9.25000  4.99540e+22
      9.25500  4.98459e+22
      9.26000  4.97379e+22
      9.26500  4.96301e+22
      9.27000  4.95223e+22
      9.27500  4.94146e+22
      9.28000  4.93068e+22
      9.28500  4.91993e+22
      9.29000  4.91133e+22
      9.29500  4.90273e+22
      9.30000  4.89413e+22
      9.30500  4.88553e+22
      9.31000  4.87618e+22
      9.31500  4.86546e+22
      9.32000  4.85473e+22
      9.32500  4.84401e+22
      9.33000  4.83329e+22
      9.33500  4.82259e+22
      9.34000  4.81189e+22
      9.34500  4.80120e+22
      9.35000  4.79051e+22
      9.35500  4.77981e+22
      9.36000  4.76914e+22
      9.36500  4.75848e+22
      9.37000  4.74781e+22
      9.37500  4.73714e+22
      9.38000  4.72719e+22
      9.38500  4.71867e+22
      9.39000  4.71016e+22
      9.39500  4.70165e+22
      9.40000  4.69314e+22
      9.40500  4.68329e+22
      9.41000  4.67268e+22
      9.41500  4.66207e+22
      9.42000  4.65145e+22
      9.42500  4.64084e+22
      9.43000  4.63220e+22
      9.43500  4.62373e+22
      9.44000  4.61526e+22
      9.44500  4.60679e+22
      9.45000  4.59790e+22
      9.45500  4.58734e+22
      9.46000  4.57678e+22
      9.46500  4.56622e+22
      9.47000  4.55565e+22
      9.47500  4.54511e+22
      9.48000  4.53457e+22
      9.48500  4.52404e+22
      9.49000  4.51350e+22
      9.49500  4.50297e+22
      9.50000  4.49396e+22
      9.50500  4.48555e+22
      9.51000  4.47714e+22
      9.51500  4.46874e+22
      9.52000  4.46033e+22
      9.52500  4.45194e+22
      9.53000  4.44356e+22
      9.53500  4.43517e+22
      9.54000  4.42679e+22
      9.54500  4.41840e+22
      9.55000  4.41004e+22
      9.55500  4.40167e+22
      9.56000  4.39331e+22
      9.56500  4.38495e+22
      9.57000  4.37574e+22
      9.57500  4.36531e+22
      9.58000  4.35488e+22
      9.58500  4.34445e+22
      9.59000  4.33401e+22
      9.59500  4.32488e+22
      9.60000  4.31656e+22
      9.60500  4.30823e+22
      9.61000  4.29991e+22
      9.61500  4.29159e+22
      9.62000  4.28328e+22
      9.62500  4.27498e+22
      9.63000  4.26668e+22
      9.63500  4.25837e+22
      9.64000  4.25007e+22
      9.64500  4.24179e+22
      9.65000  4.23351e+22
      9.65500  4.22523e+22
      9.66000  4.21694e+22
      9.66500  4.20867e+22
      9.67000  4.20040e+22
      9.67500  4.19214e+22
      9.68000  4.18388e+22
      9.68500  4.17562e+22
      9.69000  4.16671e+22
      9.69500  4.15641e+22
      9.70000  4.14611e+22
      9.70500  4.13581e+22
      9.71000  4.12551e+22
      9.71500  4.11617e+22
      9.72000  4.10795e+22
      9.72500  4.09973e+22
      9.73000  4.09152e+22
      9.73500  4.08330e+22
      9.74000  4.07509e+22
      9.74500  4.06689e+22
      9.75000  4.05869e+22
      9.75500  4.05049e+22
      9.76000  4.04229e+22
      9.76500  4.03411e+22
      9.77000  4.02593e+22
      9.77500  4.01775e+22
      9.78000  4.00957e+22
      9.78500  4.00139e+22
      9.79000  3.99323e+22
      9.79500  3.98507e+22
      9.80000  3.97691e+22
      9.80500  3.96875e+22
      9.81000  3.96060e+22
      9.81500  3.95434e+22
      9.82000  3.94824e+22
      9.82500  3.94214e+22
      9.83000  3.93603e+22
      9.83500  3.92991e+22
      9.84000  3.92179e+22
      9.84500  3.91367e+22
      9.85000  3.90555e+22
      9.85500  3.89743e+22
      9.86000  3.88932e+22
      9.86500  3.88122e+22
      9.87000  3.87312e+22
      9.87500  3.86503e+22
      9.88000  3.85693e+22
      9.88500  3.84884e+22
      9.89000  3.84076e+22
      9.89500  3.83268e+22
      9.90000  3.82460e+22
      9.90500  3.81653e+22
      9.91000  3.80884e+22
      9.91500  3.80280e+22
      9.92000  3.79675e+22
      9.92500  3.79071e+22
      9.93000  3.78467e+22
      9.93500  3.77817e+22
      9.94000  3.77014e+22
      9.94500  3.76210e+22
      9.95000  3.75406e+22
      9.95500  3.74603e+22
      9.96000  3.73800e+22
      9.96500  3.72998e+22
      9.97000  3.72196e+22
      9.97500  3.71394e+22
      9.98000  3.70593e+22
      9.98500  3.69844e+22
      9.99000  3.69244e+22
      9.99500  3.68644e+22
      10.0000  3.68045e+22
      10.0050  3.67445e+22
      10.0100  3.66794e+22
      10.0150  3.65996e+22
      10.0200  3.65198e+22
      10.0250  3.64401e+22
      10.0300  3.63603e+22
      10.0350  3.62806e+22
      10.0400  3.62010e+22
      10.0450  3.61215e+22
      10.0500  3.60419e+22
      10.0550  3.59623e+22
      10.0600  3.58871e+22
      10.0650  3.58276e+22
      10.0700  3.57681e+22
      10.0750  3.57085e+22
      10.0800  3.56490e+22
      10.0850  3.55860e+22
      10.0900  3.55068e+22
      10.0950  3.54277e+22
      10.1000  3.53485e+22
      10.1050  3.52693e+22
      10.1100  3.51926e+22
      10.1150  3.51334e+22
      10.1200  3.50742e+22
      10.1250  3.50149e+22
      10.1300  3.49557e+22
      10.1350  3.48965e+22
      10.1400  3.48374e+22
      10.1450  3.47783e+22
      10.1500  3.47193e+22
      10.1550  3.46602e+22
      10.1600  3.46011e+22
      10.1650  3.45229e+22
      10.1700  3.44443e+22
      10.1750  3.43657e+22
      10.1800  3.42871e+22
      10.1850  3.42085e+22
      10.1900  3.41476e+22
      10.1950  3.40888e+22
      10.2000  3.40300e+22
      10.2050  3.39713e+22
      10.2100  3.39125e+22
      10.2150  3.38384e+22
      10.2200  3.37602e+22
      10.2250  3.36820e+22
      10.2300  3.36039e+22
      10.2350  3.35257e+22
      10.2400  3.34607e+22
      10.2450  3.34022e+22
      10.2500  3.33437e+22
      10.2550  3.32852e+22
      10.2600  3.32267e+22
      10.2650  3.31683e+22
      10.2700  3.31100e+22
      10.2750  3.30516e+22
      10.2800  3.29933e+22
      10.2850  3.29349e+22
      10.2900  3.28766e+22
      10.2950  3.28184e+22
      10.3000  3.27602e+22
      10.3050  3.27020e+22
      10.3100  3.26438e+22
      10.3150  3.25857e+22
      10.3200  3.25276e+22
      10.3250  3.24696e+22
      10.3300  3.24115e+22
      10.3350  3.23534e+22
      10.3400  3.22939e+22
      10.3450  3.22167e+22
      10.3500  3.21394e+22
      10.3550  3.20622e+22
      10.3600  3.19850e+22
      10.3650  3.19078e+22
      10.3700  3.18481e+22
      10.3750  3.17903e+22
      10.3800  3.17325e+22
      10.3850  3.16748e+22
      10.3900  3.16170e+22
      10.3950  3.15593e+22
      10.4000  3.15017e+22
      10.4050  3.14441e+22
      10.4100  3.13865e+22
      10.4150  3.13289e+22
      10.4200  3.12713e+22
      10.4250  3.12138e+22
      10.4300  3.11564e+22
      10.4350  3.10989e+22
      10.4400  3.10414e+22
      10.4450  3.09840e+22
      10.4500  3.09266e+22
      10.4550  3.08693e+22
      10.4600  3.08120e+22
      10.4650  3.07546e+22
      10.4700  3.06973e+22
      10.4750  3.06401e+22
      10.4800  3.05829e+22
      10.4850  3.05257e+22
      10.4900  3.04685e+22
      10.4950  3.04113e+22
      10.5000  3.03543e+22
      10.5050  3.02972e+22
      10.5100  3.02402e+22
      10.5150  3.01831e+22
      10.5200  3.01261e+22
      10.5250  3.00691e+22
      10.5300  3.00122e+22
      10.5350  2.99553e+22
      10.5400  2.98984e+22
      10.5450  2.98415e+22
      10.5500  2.97846e+22
      10.5550  2.97279e+22
      10.5600  2.96711e+22
      10.5650  2.96143e+22
      10.5700  2.95576e+22
      10.5750  2.95008e+22
      10.5800  2.94442e+22
      10.5850  2.93876e+22
      10.5900  2.93309e+22
      10.5950  2.92743e+22
      10.6000  2.92177e+22
      10.6050  2.91612e+22
      10.6100  2.91047e+22
      10.6150  2.90482e+22
      10.6200  2.89917e+22
      10.6250  2.89353e+22
      10.6300  2.88859e+22
      10.6350  2.88483e+22
      10.6400  2.88108e+22
      10.6450  2.87732e+22
      10.6500  2.87357e+22
      10.6550  2.86971e+22
      10.6600  2.86410e+22
      10.6650  2.85847e+22
      10.6700  2.85286e+22
      10.6750  2.84724e+22
      10.6800  2.84162e+22
      10.6850  2.83601e+22
      10.6900  2.83040e+22
      10.6950  2.82479e+22
      10.7000  2.81919e+22
      10.7050  2.81358e+22
      10.7100  2.80798e+22
      10.7150  2.80239e+22
      10.7200  2.79680e+22
      10.7250  2.79121e+22
      10.7300  2.78562e+22
      10.7350  2.78002e+22
      10.7400  2.77630e+22
      10.7450  2.77258e+22
      10.7500  2.76886e+22
      10.7550  2.76514e+22
      10.7600  2.76142e+22
      10.7650  2.75657e+22
      10.7700  2.75100e+22
      10.7750  2.74544e+22
      10.7800  2.73988e+22
      10.7850  2.73431e+22
      10.7900  2.72875e+22
      10.7950  2.72320e+22
      10.8000  2.71765e+22
      10.8050  2.71210e+22
      10.8100  2.70655e+22
      10.8150  2.70100e+22
      10.8200  2.69546e+22
      10.8250  2.68993e+22
      10.8300  2.68439e+22
      10.8350  2.67885e+22
      10.8400  2.67332e+22
      10.8450  2.66852e+22
      10.8500  2.66484e+22
      10.8550  2.66116e+22
      10.8600  2.65748e+22
      10.8650  2.65380e+22
      10.8700  2.65012e+22
      10.8750  2.64467e+22
      10.8800  2.63916e+22
      10.8850  2.63365e+22
      10.8900  2.62814e+22
      10.8950  2.62263e+22
      10.9000  2.61809e+22
      10.9050  2.61443e+22
      10.9100  2.61076e+22
      10.9150  2.60710e+22
      10.9200  2.60344e+22
      10.9250  2.59966e+22
      10.9300  2.59418e+22
      10.9350  2.58870e+22
      10.9400  2.58322e+22
      10.9450  2.57774e+22
      10.9500  2.57226e+22
      10.9550  2.56786e+22
      10.9600  2.56421e+22
      10.9650  2.56057e+22
      10.9700  2.55692e+22
      10.9750  2.55328e+22
      10.9800  2.54945e+22
      10.9850  2.54400e+22
      10.9900  2.53854e+22
      10.9950  2.53309e+22
      11.0000  2.52763e+22
      11.0050  2.52218e+22
      11.0100  2.51782e+22
      11.0150  2.51420e+22
      11.0200  2.51057e+22
      11.0250  2.50694e+22
      11.0300  2.50332e+22
      11.0350  2.49954e+22
      11.0400  2.49411e+22
      11.0450  2.48868e+22
      11.0500  2.48326e+22
      11.0550  2.47783e+22
      11.0600  2.47241e+22
      11.0650  2.46799e+22
      11.0700  2.46438e+22
      11.0750  2.46077e+22
      11.0800  2.45717e+22
      11.0850  2.45356e+22
      11.0900  2.44992e+22
      11.0950  2.44452e+22
      11.1000  2.43912e+22
      11.1050  2.43373e+22
      11.1100  2.42833e+22
      11.1150  2.42293e+22
      11.1200  2.41836e+22
      11.1250  2.41477e+22
      11.1300  2.41118e+22
      11.1350  2.40758e+22
      11.1400  2.40399e+22
      11.1450  2.40040e+22
      11.1500  2.39682e+22
      11.1550  2.39324e+22
      11.1600  2.38966e+22
      11.1650  2.38608e+22
      11.1700  2.38249e+22
      11.1750  2.37837e+22
      11.1800  2.37301e+22
      11.1850  2.36766e+22
      11.1900  2.36230e+22
      11.1950  2.35694e+22
      11.2000  2.35158e+22
      11.2050  2.34749e+22
      11.2100  2.34392e+22
      11.2150  2.34036e+22
      11.2200  2.33680e+22
      11.2250  2.33323e+22
      11.2300  2.32967e+22
      11.2350  2.32612e+22
      11.2400  2.32256e+22
      11.2450  2.31901e+22
      11.2500  2.31545e+22
      11.2550  2.31190e+22
      11.2600  2.30835e+22
      11.2650  2.30480e+22
      11.2700  2.30125e+22
      11.2750  2.29771e+22
      11.2800  2.29416e+22
      11.2850  2.29062e+22
      11.2900  2.28562e+22
      11.2950  2.28031e+22
      11.3000  2.27501e+22
      11.3050  2.26970e+22
      11.3100  2.26439e+22
      11.3150  2.25939e+22
      11.3200  2.25587e+22
      11.3250  2.25234e+22
      11.3300  2.24881e+22
      11.3350  2.24528e+22
      11.3400  2.24175e+22
      11.3450  2.23823e+22
      11.3500  2.23471e+22
      11.3550  2.23119e+22
      11.3600  2.22767e+22
      11.3650  2.22415e+22
      11.3700  2.22063e+22
      11.3750  2.21712e+22
      11.3800  2.21361e+22
      11.3850  2.21010e+22
      11.3900  2.20659e+22
      11.3950  2.20308e+22
      11.4000  2.19957e+22
      11.4050  2.19607e+22
      11.4100  2.19257e+22
      11.4150  2.18906e+22
      11.4200  2.18556e+22
      11.4250  2.18206e+22
      11.4300  2.17784e+22
      11.4350  2.17260e+22
      11.4400  2.16736e+22
      11.4450  2.16212e+22
      11.4500  2.15688e+22
      11.4550  2.15164e+22
      11.4600  2.14761e+22
      11.4650  2.14413e+22
      11.4700  2.14064e+22
      11.4750  2.13716e+22
      11.4800  2.13367e+22
      11.4850  2.13019e+22
      11.4900  2.12671e+22
      11.4950  2.12324e+22
      11.5000  2.11976e+22
      11.5050  2.11629e+22
      11.5100  2.11281e+22
      11.5150  2.10934e+22
      11.5200  2.10587e+22
      11.5250  2.10240e+22
      11.5300  2.09894e+22
      11.5350  2.09547e+22
      11.5400  2.09200e+22
      11.5450  2.08854e+22
      11.5500  2.08508e+22
      11.5550  2.08162e+22
      11.5600  2.07816e+22
      11.5650  2.07471e+22
      11.5700  2.07125e+22
      11.5750  2.06779e+22
      11.5800  2.06434e+22
      11.5850  2.06090e+22
      11.5900  2.05745e+22
      11.5950  2.05400e+22
      11.6000  2.05055e+22
      11.6050  2.04710e+22
      11.6100  2.04366e+22
      11.6150  2.04022e+22
      11.6200  2.03678e+22
      11.6250  2.03334e+22
      11.6300  2.02990e+22
      11.6350  2.02647e+22
      11.6400  2.02303e+22
      11.6450  2.01960e+22
      11.6500  2.01617e+22
      11.6550  2.01274e+22
      11.6600  2.00931e+22
      11.6650  2.00588e+22
      11.6700  2.00246e+22
      11.6750  1.99904e+22
      11.6800  1.99561e+22
      11.6850  1.99219e+22
      11.6900  1.98877e+22
      11.6950  1.98535e+22
      11.7000  1.98194e+22
      11.7050  1.97852e+22
      11.7100  1.97511e+22
      11.7150  1.97169e+22
      11.7200  1.96828e+22
      11.7250  1.96487e+22
      11.7300  1.96147e+22
      11.7350  1.95806e+22
      11.7400  1.95465e+22
      11.7450  1.95125e+22
      11.7500  1.94784e+22
      11.7550  1.94445e+22
      11.7600  1.94105e+22
      11.7650  1.93765e+22
      11.7700  1.93425e+22
      11.7750  1.93085e+22
      11.7800  1.92746e+22
      11.7850  1.92407e+22
      11.7900  1.92068e+22
      11.7950  1.91729e+22
      11.8000  1.91390e+22
      11.8050  1.91051e+22
      11.8100  1.90713e+22
      11.8150  1.90375e+22
      11.8200  1.90037e+22
      11.8250  1.89699e+22
      11.8300  1.89361e+22
      11.8350  1.89023e+22
      11.8400  1.88843e+22
      11.8450  1.88674e+22
      11.8500  1.88505e+22
      11.8550  1.88337e+22
      11.8600  1.88168e+22
      11.8650  1.87999e+22
      11.8700  1.87662e+22
      11.8750  1.87326e+22
      11.8800  1.86989e+22
      11.8850  1.86653e+22
      11.8900  1.86317e+22
      11.8950  1.85980e+22
      11.9000  1.85645e+22
      11.9050  1.85309e+22
      11.9100  1.84973e+22
      11.9150  1.84638e+22
      11.9200  1.84302e+22
      11.9250  1.83967e+22
      11.9300  1.83632e+22
      11.9350  1.83297e+22
      11.9400  1.82962e+22
      11.9450  1.82628e+22
      11.9500  1.82293e+22
      11.9550  1.81958e+22
      11.9600  1.81624e+22
      11.9650  1.81290e+22
      11.9700  1.80957e+22
      11.9750  1.80623e+22
      11.9800  1.80289e+22
      11.9850  1.79977e+22
      11.9900  1.79811e+22
      11.9950  1.79644e+22
      12.0000  1.79478e+22
      12.0050  1.79311e+22
      12.0100  1.79145e+22
      12.0150  1.78956e+22
      12.0200  1.78624e+22
      12.0250  1.78292e+22
      12.0300  1.77960e+22
      12.0350  1.77627e+22
      12.0400  1.77295e+22
      12.0450  1.76963e+22
      12.0500  1.76632e+22
      12.0550  1.76300e+22
      12.0600  1.75969e+22
      12.0650  1.75637e+22
      12.0700  1.75306e+22
      12.0750  1.74975e+22
      12.0800  1.74644e+22
      12.0850  1.74313e+22
      12.0900  1.73983e+22
      12.0950  1.73652e+22
      12.1000  1.73322e+22
      12.1050  1.72996e+22
      12.1100  1.72831e+22
      12.1150  1.72666e+22
      12.1200  1.72501e+22
      12.1250  1.72336e+22
      12.1300  1.72171e+22
      12.1350  1.72006e+22
      12.1400  1.71683e+22
      12.1450  1.71354e+22
      12.1500  1.71026e+22
      12.1550  1.70697e+22
      12.1600  1.70368e+22
      12.1650  1.70039e+22
      12.1700  1.69710e+22
      12.1750  1.69382e+22
      12.1800  1.69054e+22
      12.1850  1.68726e+22
      12.1900  1.68398e+22
      12.1950  1.68070e+22
      12.2000  1.67871e+22
      12.2050  1.67708e+22
      12.2100  1.67544e+22
      12.2150  1.67380e+22
      12.2200  1.67217e+22
      12.2250  1.67053e+22
      12.2300  1.66779e+22
      12.2350  1.66453e+22
      12.2400  1.66126e+22
      12.2450  1.65800e+22
      12.2500  1.65473e+22
      12.2550  1.65147e+22
      12.2600  1.64821e+22
      12.2650  1.64495e+22
      12.2700  1.64169e+22
      12.2750  1.63844e+22
      12.2800  1.63518e+22
      12.2850  1.63192e+22
      12.2900  1.62933e+22
      12.2950  1.62771e+22
      12.3000  1.62609e+22
      12.3050  1.62446e+22
      12.3100  1.62284e+22
      12.3150  1.62121e+22
      12.3200  1.61918e+22
      12.3250  1.61594e+22
      12.3300  1.61270e+22
      12.3350  1.60946e+22
      12.3400  1.60622e+22
      12.3450  1.60298e+22
      12.3500  1.59987e+22
      12.3550  1.59825e+22
      12.3600  1.59664e+22
      12.3650  1.59502e+22
      12.3700  1.59340e+22
      12.3750  1.59179e+22
      12.3800  1.59017e+22
      12.3850  1.58712e+22
      12.3900  1.58389e+22
      12.3950  1.58067e+22
      12.4000  1.57745e+22
      12.4050  1.57422e+22
      12.4100  1.57100e+22
      12.4150  1.56889e+22
      12.4200  1.56728e+22
      12.4250  1.56567e+22
      12.4300  1.56407e+22
      12.4350  1.56246e+22
      12.4400  1.56085e+22
      12.4450  1.55849e+22
      12.4500  1.55528e+22
      12.4550  1.55207e+22
      12.4600  1.54886e+22
      12.4650  1.54565e+22
      12.4700  1.54244e+22
      12.4750  1.53924e+22
      12.4800  1.53604e+22
      12.4850  1.53284e+22
      12.4900  1.52964e+22
      12.4950  1.52644e+22
      12.5000  1.52324e+22
      12.5050  1.52004e+22
      12.5100  1.51842e+22
      12.5150  1.51683e+22
      12.5200  1.51523e+22
      12.5250  1.51363e+22
      12.5300  1.51204e+22
      12.5350  1.51044e+22
      12.5400  1.50885e+22
      12.5450  1.50726e+22
      12.5500  1.50566e+22
      12.5550  1.50407e+22
      12.5600  1.50248e+22
      12.5650  1.50089e+22
      12.5700  1.49860e+22
      12.5750  1.49542e+22
      12.5800  1.49224e+22
      12.5850  1.48907e+22
      12.5900  1.48589e+22
      12.5950  1.48272e+22
      12.6000  1.47977e+22
      12.6050  1.47819e+22
      12.6100  1.47660e+22
      12.6150  1.47502e+22
      12.6200  1.47343e+22
      12.6250  1.47185e+22
      12.6300  1.47027e+22
      12.6350  1.46737e+22
      12.6400  1.46421e+22
      12.6450  1.46105e+22
      12.6500  1.45789e+22
      12.6550  1.45473e+22
      12.6600  1.45157e+22
      12.6650  1.44921e+22
      12.6700  1.44763e+22
      12.6750  1.44605e+22
      12.6800  1.44448e+22
      12.6850  1.44290e+22
      12.6900  1.44132e+22
      12.6950  1.43950e+22
      12.7000  1.43635e+22
      12.7050  1.43321e+22
      12.7100  1.43006e+22
      12.7150  1.42692e+22
      12.7200  1.42377e+22
      12.7250  1.42063e+22
      12.7300  1.41875e+22
      12.7350  1.41718e+22
      12.7400  1.41561e+22
      12.7450  1.41404e+22
      12.7500  1.41247e+22
      12.7550  1.41090e+22
      12.7600  1.40867e+22
      12.7650  1.40555e+22
      12.7700  1.40242e+22
      12.7750  1.39929e+22
      12.7800  1.39616e+22
      12.7850  1.39303e+22
      12.7900  1.38995e+22
      12.7950  1.38839e+22
      12.8000  1.38683e+22
      12.8050  1.38527e+22
      12.8100  1.38371e+22
      12.8150  1.38215e+22
      12.8200  1.38059e+22
      12.8250  1.37903e+22
      12.8300  1.37747e+22
      12.8350  1.37592e+22
      12.8400  1.37436e+22
      12.8450  1.37280e+22
      12.8500  1.37125e+22
      12.8550  1.36938e+22
      12.8600  1.36628e+22
      12.8650  1.36317e+22
      12.8700  1.36006e+22
      12.8750  1.35696e+22
      12.8800  1.35385e+22
      12.8850  1.35075e+22
      12.8900  1.34882e+22
      12.8950  1.34728e+22
      12.9000  1.34573e+22
      12.9050  1.34418e+22
      12.9100  1.34263e+22
      12.9150  1.34108e+22
      12.9200  1.33953e+22
      12.9250  1.33799e+22
      12.9300  1.33644e+22
      12.9350  1.33490e+22
      12.9400  1.33335e+22
      12.9450  1.33181e+22
      12.9500  1.33026e+22
      12.9550  1.32744e+22
      12.9600  1.32436e+22
      12.9650  1.32128e+22
      12.9700  1.31819e+22
      12.9750  1.31511e+22
      12.9800  1.31203e+22
      12.9850  1.30947e+22
      12.9900  1.30794e+22
      12.9950  1.30640e+22
      13.0000  1.30486e+22
      13.0050  1.30333e+22
      13.0100  1.30179e+22
      13.0150  1.30025e+22
      13.0200  1.29872e+22
      13.0250  1.29718e+22
      13.0300  1.29565e+22
      13.0350  1.29412e+22
      13.0400  1.29258e+22
      13.0450  1.29105e+22
      13.0500  1.28952e+22
      13.0550  1.28799e+22
      13.0600  1.28646e+22
      13.0650  1.28493e+22
      13.0700  1.28340e+22
      13.0750  1.28187e+22
      13.0800  1.28034e+22
      13.0850  1.27763e+22
      13.0900  1.27457e+22
      13.0950  1.27152e+22
      13.1000  1.26847e+22
      13.1050  1.26542e+22
      13.1100  1.26237e+22
      13.1150  1.25966e+22
      13.1200  1.25814e+22
      13.1250  1.25662e+22
      13.1300  1.25509e+22
      13.1350  1.25357e+22
      13.1400  1.25205e+22
      13.1450  1.25053e+22
      13.1500  1.24901e+22
      13.1550  1.24749e+22
      13.1600  1.24597e+22
      13.1650  1.24445e+22
      13.1700  1.24294e+22
      13.1750  1.24142e+22
      13.1800  1.23990e+22
      13.1850  1.23838e+22
      13.1900  1.23687e+22
      13.1950  1.23536e+22
      13.2000  1.23384e+22
      13.2050  1.23233e+22
      13.2100  1.23081e+22
      13.2150  1.22860e+22
      13.2200  1.22558e+22
      13.2250  1.22256e+22
      13.2300  1.21954e+22
      13.2350  1.21652e+22
      13.2400  1.21349e+22
      13.2450  1.21047e+22
      13.2500  1.20873e+22
      13.2550  1.20722e+22
      13.2600  1.20572e+22
      13.2650  1.20421e+22
      13.2700  1.20270e+22
      13.2750  1.20120e+22
      13.2800  1.19969e+22
      13.2850  1.19819e+22
      13.2900  1.19668e+22
      13.2950  1.19518e+22
      13.3000  1.19368e+22
      13.3050  1.19217e+22
      13.3100  1.19067e+22
      13.3150  1.18917e+22
      13.3200  1.18767e+22
      13.3250  1.18617e+22
      13.3300  1.18467e+22
      13.3350  1.18317e+22
      13.3400  1.18167e+22
      13.3450  1.18017e+22
      13.3500  1.17868e+22
      13.3550  1.17718e+22
      13.3600  1.17569e+22
      13.3650  1.17419e+22
      13.3700  1.17270e+22
      13.3750  1.17120e+22
      13.3800  1.16971e+22
      13.3850  1.16821e+22
      13.3900  1.16672e+22
      13.3950  1.16523e+22
      13.4000  1.16374e+22
      13.4050  1.16225e+22
      13.4100  1.16075e+22
      13.4150  1.15853e+22
      13.4200  1.15555e+22
      13.4250  1.15258e+22
      13.4300  1.14960e+22
      13.4350  1.14662e+22
      13.4400  1.14365e+22
      13.4450  1.14067e+22
      13.4500  1.13885e+22
      13.4550  1.13737e+22
      13.4600  1.13588e+22
      13.4650  1.13440e+22
      13.4700  1.13291e+22
      13.4750  1.13143e+22
      13.4800  1.12994e+22
      13.4850  1.12846e+22
      13.4900  1.12698e+22
      13.4950  1.12550e+22
      13.5000  1.12402e+22
      13.5050  1.12254e+22
      13.5100  1.12106e+22
      13.5150  1.11958e+22
      13.5200  1.11810e+22
      13.5250  1.11663e+22
      13.5300  1.11515e+22
      13.5350  1.11367e+22
      13.5400  1.11220e+22
      13.5450  1.11072e+22
      13.5500  1.10924e+22
      13.5550  1.10777e+22
      13.5600  1.10630e+22
      13.5650  1.10482e+22
      13.5700  1.10335e+22
      13.5750  1.10188e+22
      13.5800  1.10040e+22
      13.5850  1.09893e+22
      13.5900  1.09746e+22
      13.5950  1.09599e+22
      13.6000  1.09453e+22
      13.6050  1.09306e+22
      13.6100  1.09159e+22
      13.6150  1.09012e+22
      13.6200  1.08865e+22
      13.6250  1.08718e+22
      13.6300  1.08572e+22
      13.6350  1.08425e+22
      13.6400  1.08279e+22
      13.6450  1.08132e+22
      13.6500  1.07986e+22
      13.6550  1.07839e+22
      13.6600  1.07693e+22
      13.6650  1.07547e+22
      13.6700  1.07401e+22
      13.6750  1.07254e+22
      13.6800  1.07108e+22
      13.6850  1.06962e+22
      13.6900  1.06816e+22
      13.6950  1.06670e+22
      13.7000  1.06524e+22
      13.7050  1.06379e+22
      13.7100  1.06233e+22
      13.7150  1.06087e+22
      13.7200  1.05941e+22
      13.7250  1.05796e+22
      13.7300  1.05650e+22
      13.7350  1.05505e+22
      13.7400  1.05359e+22
      13.7450  1.05214e+22
      13.7500  1.05068e+22
      13.7550  1.04923e+22
      13.7600  1.04778e+22
      13.7650  1.04633e+22
      13.7700  1.04487e+22
      13.7750  1.04342e+22
      13.7800  1.04197e+22
      13.7850  1.04052e+22
      13.7900  1.03907e+22
      13.7950  1.03762e+22
      13.8000  1.03618e+22
      13.8050  1.03473e+22
      13.8100  1.03328e+22
      13.8150  1.03183e+22
      13.8200  1.03039e+22
      13.8250  1.02894e+22
      13.8300  1.02750e+22
      13.8350  1.02605e+22
      13.8400  1.02461e+22
      13.8450  1.02316e+22
      13.8500  1.02172e+22
      13.8550  1.02028e+22
      13.8600  1.01884e+22
      13.8650  1.01739e+22
      13.8700  1.01595e+22
      13.8750  1.01451e+22
      13.8800  1.01307e+22
      13.8850  1.01163e+22
      13.8900  1.01019e+22
      13.8950  1.00838e+22
      13.9000  1.00651e+22
      13.9050  1.00465e+22
      13.9100  1.00278e+22
      13.9150  1.00091e+22
      13.9200  9.99041e+21
      13.9250  9.97174e+21
      13.9300  9.95700e+21
      13.9350  9.94267e+21
      13.9400  9.92834e+21
      13.9450  9.91400e+21
      13.9500  9.89967e+21
      13.9550  9.88534e+21
      13.9600  9.87100e+21
      13.9650  9.85670e+21
      13.9700  9.84241e+21
      13.9750  9.82811e+21
      13.9800  9.81381e+21
      13.9850  9.79952e+21
      13.9900  9.78522e+21
      13.9950  9.77092e+21
      14.0000  9.75799e+21
      14.0050  9.74516e+21
      14.0100  9.73232e+21
      14.0150  9.71949e+21
      14.0200  9.70665e+21
      14.0250  9.69382e+21
      14.0300  9.68098e+21
      14.0350  9.66687e+21
      14.0400  9.65264e+21
      14.0450  9.63841e+21
      14.0500  9.62419e+21
      14.0550  9.60996e+21
      14.0600  9.59573e+21
      14.0650  9.58151e+21
      14.0700  9.56859e+21
      14.0750  9.55581e+21
      14.0800  9.54304e+21
      14.0850  9.53027e+21
      14.0900  9.51750e+21
      14.0950  9.50473e+21
      14.1000  9.49196e+21
      14.1050  9.47921e+21
      14.1100  9.46648e+21
      14.1150  9.45374e+21
      14.1200  9.44100e+21
      14.1250  9.42826e+21
      14.1300  9.41552e+21
      14.1350  9.40278e+21
      14.1400  9.38896e+21
      14.1450  9.37484e+21
      14.1500  9.36073e+21
      14.1550  9.34661e+21
      14.1600  9.33249e+21
      14.1650  9.31837e+21
      14.1700  9.30425e+21
      14.1750  9.29114e+21
      14.1800  9.27846e+21
      14.1850  9.26579e+21
      14.1900  9.25311e+21
      14.1950  9.24044e+21
      14.2000  9.22776e+21
      14.2050  9.21508e+21
      14.2100  9.20243e+21
      14.2150  9.18978e+21
      14.2200  9.17714e+21
      14.2250  9.16449e+21
      14.2300  9.15185e+21
      14.2350  9.13921e+21
      14.2400  9.12656e+21
      14.2450  9.11394e+21
      14.2500  9.10132e+21
      14.2550  9.08871e+21
      14.2600  9.07610e+21
      14.2650  9.06349e+21
      14.2700  9.05087e+21
      14.2750  9.03826e+21
      14.2800  9.02566e+21
      14.2850  9.01308e+21
      14.2900  9.00050e+21
      14.2950  8.98792e+21
      14.3000  8.97534e+21
      14.3050  8.96276e+21
      14.3100  8.95017e+21
      14.3150  8.93760e+21
      14.3200  8.92505e+21
      14.3250  8.91250e+21
      14.3300  8.89995e+21
      14.3350  8.88740e+21
      14.3400  8.87485e+21
      14.3450  8.86230e+21
      14.3500  8.84978e+21
      14.3550  8.83866e+21
      14.3600  8.82753e+21
      14.3650  8.81640e+21
      14.3700  8.80527e+21
      14.3750  8.79415e+21
      14.3800  8.78302e+21
      14.3850  8.77189e+21
      14.3900  8.75964e+21
      14.3950  8.74715e+21
      14.4000  8.73467e+21
      14.4050  8.72218e+21
      14.4100  8.70969e+21
      14.4150  8.69720e+21
      14.4200  8.68472e+21
      14.4250  8.67311e+21
      14.4300  8.66204e+21
      14.4350  8.65097e+21
      14.4400  8.63990e+21
      14.4450  8.62883e+21
      14.4500  8.61776e+21
      14.4550  8.60668e+21
      14.4600  8.59508e+21
      14.4650  8.58265e+21
      14.4700  8.57023e+21
      14.4750  8.55780e+21
      14.4800  8.54538e+21
      14.4850  8.53295e+21
      14.4900  8.52053e+21
      14.4950  8.50832e+21
      14.5000  8.49730e+21
      14.5050  8.48629e+21
      14.5100  8.47527e+21
      14.5150  8.46425e+21
      14.5200  8.45324e+21
      14.5250  8.44222e+21
      14.5300  8.43121e+21
      14.5350  8.41899e+21
      14.5400  8.40663e+21
      14.5450  8.39427e+21
      14.5500  8.38190e+21
      14.5550  8.36954e+21
      14.5600  8.35718e+21
      14.5650  8.34482e+21
      14.5700  8.33331e+21
      14.5750  8.32235e+21
      14.5800  8.31139e+21
      14.5850  8.30043e+21
      14.5900  8.28946e+21
      14.5950  8.27850e+21
      14.6000  8.26754e+21
      14.6050  8.25659e+21
      14.6100  8.24566e+21
      14.6150  8.23472e+21
      14.6200  8.22379e+21
      14.6250  8.21285e+21
      14.6300  8.20192e+21
      14.6350  8.19099e+21
      14.6400  8.18005e+21
      14.6450  8.16915e+21
      14.6500  8.15824e+21
      14.6550  8.14733e+21
      14.6600  8.13643e+21
      14.6650  8.12552e+21
      14.6700  8.11461e+21
      14.6750  8.10370e+21
      14.6800  8.09282e+21
      14.6850  8.08194e+21
      14.6900  8.07106e+21
      14.6950  8.06018e+21
      14.7000  8.04930e+21
      14.7050  8.03842e+21
      14.7100  8.02754e+21
      14.7150  8.01667e+21
      14.7200  8.00582e+21
      14.7250  7.99497e+21
      14.7300  7.98411e+21
      14.7350  7.97326e+21
      14.7400  7.96241e+21
      14.7450  7.95156e+21
      14.7500  7.94071e+21
      14.7550  7.92988e+21
      14.7600  7.91905e+21
      14.7650  7.90823e+21
      14.7700  7.89740e+21
      14.7750  7.88658e+21
      14.7800  7.87575e+21
      14.7850  7.86493e+21
      14.7900  7.85412e+21
      14.7950  7.84332e+21
      14.8000  7.83252e+21
      14.8050  7.82172e+21
      14.8100  7.81093e+21
      14.8150  7.80013e+21
      14.8200  7.78933e+21
      14.8250  7.77872e+21
      14.8300  7.76930e+21
      14.8350  7.75987e+21
      14.8400  7.75045e+21
      14.8450  7.74102e+21
      14.8500  7.73160e+21
      14.8550  7.72217e+21
      14.8600  7.71275e+21
      14.8650  7.70239e+21
      14.8700  7.69164e+21
      14.8750  7.68090e+21
      14.8800  7.67016e+21
      14.8850  7.65941e+21
      14.8900  7.64867e+21
      14.8950  7.63792e+21
      14.9000  7.62754e+21
      14.9050  7.61816e+21
      14.9100  7.60878e+21
      14.9150  7.59941e+21
      14.9200  7.59003e+21
      14.9250  7.58065e+21
      14.9300  7.57127e+21
      14.9350  7.56189e+21
      14.9400  7.55147e+21
      14.9450  7.54078e+21
      14.9500  7.53009e+21
      14.9550  7.51940e+21
      14.9600  7.50871e+21
      14.9650  7.49802e+21
      14.9700  7.48733e+21
      14.9750  7.47706e+21
      14.9800  7.46773e+21
      14.9850  7.45840e+21
      14.9900  7.44907e+21
      14.9950  7.43974e+21
      15.0000  7.43041e+21
      15.0050  7.42108e+21
      15.0100  7.41175e+21
      15.0150  7.40244e+21
      15.0200  7.39313e+21
      15.0250  7.38382e+21
      15.0300  7.37452e+21
      15.0350  7.36521e+21
      15.0400  7.35590e+21
      15.0450  7.34659e+21
      15.0500  7.33691e+21
      15.0550  7.32629e+21
      15.0600  7.31568e+21
      15.0650  7.30508e+21
      15.0700  7.29447e+21
      15.0750  7.28385e+21
      15.0800  7.27324e+21
      15.0850  7.26263e+21
      15.0900  7.25304e+21
      15.0950  7.24378e+21
      15.1000  7.23451e+21
      15.1050  7.22525e+21
      15.1100  7.21599e+21
      15.1150  7.20673e+21
      15.1200  7.19747e+21
      15.1250  7.18821e+21
      15.1300  7.17898e+21
      15.1350  7.16974e+21
      15.1400  7.16050e+21
      15.1450  7.15126e+21
      15.1500  7.14203e+21
      15.1550  7.13279e+21
      15.1600  7.12355e+21
      15.1650  7.11433e+21
      15.1700  7.10511e+21
      15.1750  7.09590e+21
      15.1800  7.08668e+21
      15.1850  7.07747e+21
      15.1900  7.06825e+21
      15.1950  7.05904e+21
      15.2000  7.04982e+21
      15.2050  7.04063e+21
      15.2100  7.03144e+21
      15.2150  7.02225e+21
      15.2200  7.01306e+21
      15.2250  7.00386e+21
      15.2300  6.99467e+21
      15.2350  6.98548e+21
      15.2400  6.97630e+21
      15.2450  6.96713e+21
      15.2500  6.95796e+21
      15.2550  6.94879e+21
      15.2600  6.93962e+21
      15.2650  6.93045e+21
      15.2700  6.92129e+21
      15.2750  6.91212e+21
      15.2800  6.90297e+21
      15.2850  6.89382e+21
      15.2900  6.88467e+21
      15.2950  6.87553e+21
      15.3000  6.86638e+21
      15.3050  6.85724e+21
      15.3100  6.84809e+21
      15.3150  6.83910e+21
      15.3200  6.83128e+21
      15.3250  6.82346e+21
      15.3300  6.81564e+21
      15.3350  6.80782e+21
      15.3400  6.80000e+21
      15.3450  6.79218e+21
      15.3500  6.78436e+21
      15.3550  6.77597e+21
      15.3600  6.76687e+21
      15.3650  6.75777e+21
      15.3700  6.74867e+21
      15.3750  6.73957e+21
      15.3800  6.73047e+21
      15.3850  6.72137e+21
      15.3900  6.71227e+21
      15.3950  6.70319e+21
      15.4000  6.69411e+21
      15.4050  6.68503e+21
      15.4100  6.67596e+21
      15.4150  6.66688e+21
      15.4200  6.65780e+21
      15.4250  6.64872e+21
      15.4300  6.63970e+21
      15.4350  6.63194e+21
      15.4400  6.62418e+21
      15.4450  6.61641e+21
      15.4500  6.60865e+21
      15.4550  6.60089e+21
      15.4600  6.59313e+21
      15.4650  6.58537e+21
      15.4700  6.57722e+21
      15.4750  6.56818e+21
      15.4800  6.55915e+21
      15.4850  6.55012e+21
      15.4900  6.54109e+21
      15.4950  6.53206e+21
      15.5000  6.52302e+21
      15.5050  6.51399e+21
      15.5100  6.50569e+21
      15.5150  6.49797e+21
      15.5200  6.49024e+21
      15.5250  6.48252e+21
      15.5300  6.47480e+21
      15.5350  6.46708e+21
      15.5400  6.45936e+21
      15.5450  6.45163e+21
      15.5500  6.44393e+21
      15.5550  6.43622e+21
      15.5600  6.42852e+21
      15.5650  6.42082e+21
      15.5700  6.41311e+21
      15.5750  6.40541e+21
      15.5800  6.39771e+21
      15.5850  6.39000e+21
      15.5900  6.38104e+21
      15.5950  6.37207e+21
      15.6000  6.36311e+21
      15.6050  6.35415e+21
      15.6100  6.34518e+21
      15.6150  6.33622e+21
      15.6200  6.32725e+21
      15.6250  6.31854e+21
      15.6300  6.31087e+21
      15.6350  6.30321e+21
      15.6400  6.29554e+21
      15.6450  6.28788e+21
      15.6500  6.28021e+21
      15.6550  6.27255e+21
      15.6600  6.26488e+21
      15.6650  6.25722e+21
      15.6700  6.24958e+21
      15.6750  6.24193e+21
      15.6800  6.23429e+21
      15.6850  6.22664e+21
      15.6900  6.21900e+21
      15.6950  6.21135e+21
      15.7000  6.20371e+21
      15.7050  6.19607e+21
      15.7100  6.18844e+21
      15.7150  6.18082e+21
      15.7200  6.17319e+21
      15.7250  6.16556e+21
      15.7300  6.15794e+21
      15.7350  6.15031e+21
      15.7400  6.14269e+21
      15.7450  6.13507e+21
      15.7500  6.12746e+21
      15.7550  6.11986e+21
      15.7600  6.11225e+21
      15.7650  6.10464e+21
      15.7700  6.09703e+21
      15.7750  6.08943e+21
      15.7800  6.08182e+21
      15.7850  6.07423e+21
      15.7900  6.06664e+21
      15.7950  6.05905e+21
      15.8000  6.05146e+21
      15.8050  6.04387e+21
      15.8100  6.03628e+21
      15.8150  6.02870e+21
      15.8200  6.02111e+21
      15.8250  6.01353e+21
      15.8300  6.00596e+21
      15.8350  5.99840e+21
      15.8400  5.99083e+21
      15.8450  5.98326e+21
      15.8500  5.97569e+21
      15.8550  5.96812e+21
      15.8600  5.96055e+21
      15.8650  5.95300e+21
      15.8700  5.94545e+21
      15.8750  5.93789e+21
      15.8800  5.93034e+21
      15.8850  5.92279e+21
      15.8900  5.91524e+21
      15.8950  5.90769e+21
      15.9000  5.90014e+21
      15.9050  5.89261e+21
      15.9100  5.88508e+21
      15.9150  5.87755e+21
      15.9200  5.87001e+21
      15.9250  5.86248e+21
      15.9300  5.85495e+21
      15.9350  5.84742e+21
      15.9400  5.83989e+21
      15.9450  5.83238e+21
      15.9500  5.82486e+21
      15.9550  5.81735e+21
      15.9600  5.80984e+21
      15.9650  5.80232e+21
      15.9700  5.79481e+21
      15.9750  5.78730e+21
      15.9800  5.77982e+21
      15.9850  5.77358e+21
      15.9900  5.76733e+21
      15.9950  5.76109e+21
      16.0000  5.75484e+21
      16.0050  5.74860e+21
      16.0100  5.74235e+21
      16.0150  5.73611e+21
      16.0200  5.72983e+21
      16.0250  5.72236e+21
      16.0300  5.71488e+21
      16.0350  5.70741e+21
      16.0400  5.69993e+21
      16.0450  5.69246e+21
      16.0500  5.68498e+21
      16.0550  5.67751e+21
      16.0600  5.67003e+21
      16.0650  5.66257e+21
      16.0700  5.65512e+21
      16.0750  5.64766e+21
      16.0800  5.64020e+21
      16.0850  5.63275e+21
      16.0900  5.62529e+21
      16.0950  5.61784e+21
      16.1000  5.61038e+21
      16.1050  5.60412e+21
      16.1100  5.59792e+21
      16.1150  5.59172e+21
      16.1200  5.58552e+21
      16.1250  5.57932e+21
      16.1300  5.57313e+21
      16.1350  5.56693e+21
      16.1400  5.56073e+21
      16.1450  5.55345e+21
      16.1500  5.54603e+21
      16.1550  5.53861e+21
      16.1600  5.53119e+21
      16.1650  5.52377e+21
      16.1700  5.51635e+21
      16.1750  5.50894e+21
      16.1800  5.50151e+21
      16.1850  5.49509e+21
      16.1900  5.48892e+21
      16.1950  5.48276e+21
      16.2000  5.47659e+21
      16.2050  5.47042e+21
      16.2100  5.46426e+21
      16.2150  5.45809e+21
      16.2200  5.45192e+21
      16.2250  5.44576e+21
      16.2300  5.43961e+21
      16.2350  5.43346e+21
      16.2400  5.42731e+21
      16.2450  5.42115e+21
      16.2500  5.41500e+21
      16.2550  5.40885e+21
      16.2600  5.40270e+21
      16.2650  5.39587e+21
      16.2700  5.38850e+21
      16.2750  5.38114e+21
      16.2800  5.37377e+21
      16.2850  5.36641e+21
      16.2900  5.35905e+21
      16.2950  5.35168e+21
      16.3000  5.34432e+21
      16.3050  5.33747e+21
      16.3100  5.33135e+21
      16.3150  5.32523e+21
      16.3200  5.31911e+21
      16.3250  5.31298e+21
      16.3300  5.30686e+21
      16.3350  5.30074e+21
      16.3400  5.29462e+21
      16.3450  5.28850e+21
      16.3500  5.28240e+21
      16.3550  5.27629e+21
      16.3600  5.27018e+21
      16.3650  5.26408e+21
      16.3700  5.25797e+21
      16.3750  5.25187e+21
      16.3800  5.24576e+21
      16.3850  5.23966e+21
      16.3900  5.23357e+21
      16.3950  5.22747e+21
      16.4000  5.22138e+21
      16.4050  5.21529e+21
      16.4100  5.20920e+21
      16.4150  5.20311e+21
      16.4200  5.19702e+21
      16.4250  5.19093e+21
      16.4300  5.18485e+21
      16.4350  5.17878e+21
      16.4400  5.17270e+21
      16.4450  5.16662e+21
      16.4500  5.16055e+21
      16.4550  5.15447e+21
      16.4600  5.14840e+21
      16.4650  5.14232e+21
      16.4700  5.13551e+21
      16.4750  5.12823e+21
      16.4800  5.12096e+21
      16.4850  5.11369e+21
      16.4900  5.10642e+21
      16.4950  5.09914e+21
      16.5000  5.09187e+21
      16.5050  5.08460e+21
      16.5100  5.07778e+21
      16.5150  5.07174e+21
      16.5200  5.06569e+21
      16.5250  5.05964e+21
      16.5300  5.05360e+21
      16.5350  5.04755e+21
      16.5400  5.04151e+21
      16.5450  5.03546e+21
      16.5500  5.02954e+21
      16.5550  5.02471e+21
      16.5600  5.01989e+21
      16.5650  5.01506e+21
      16.5700  5.01024e+21
      16.5750  5.00541e+21
      16.5800  5.00059e+21
      16.5850  4.99577e+21
      16.5900  4.99094e+21
      16.5950  4.98516e+21
      16.6000  4.97914e+21
      16.6050  4.97313e+21
      16.6100  4.96711e+21
      16.6150  4.96110e+21
      16.6200  4.95508e+21
      16.6250  4.94907e+21
      16.6300  4.94306e+21
      16.6350  4.93705e+21
      16.6400  4.93105e+21
      16.6450  4.92505e+21
      16.6500  4.91905e+21
      16.6550  4.91305e+21
      16.6600  4.90705e+21
      16.6650  4.90105e+21
      16.6700  4.89505e+21
      16.6750  4.88905e+21
      16.6800  4.88306e+21
      16.6850  4.87708e+21
      16.6900  4.87109e+21
      16.6950  4.86511e+21
      16.7000  4.85912e+21
      16.7050  4.85314e+21
      16.7100  4.84716e+21
      16.7150  4.84117e+21
      16.7200  4.83520e+21
      16.7250  4.82923e+21
      16.7300  4.82326e+21
      16.7350  4.81729e+21
      16.7400  4.81132e+21
      16.7450  4.80534e+21
      16.7500  4.79938e+21
      16.7550  4.79341e+21
      16.7600  4.78744e+21
      16.7650  4.78149e+21
      16.7700  4.77553e+21
      16.7750  4.76958e+21
      16.7800  4.76362e+21
      16.7850  4.75767e+21
      16.7900  4.75171e+21
      16.7950  4.74576e+21
      16.8000  4.73984e+21
      16.8050  4.73509e+21
      16.8100  4.73034e+21
      16.8150  4.72558e+21
      16.8200  4.72083e+21
      16.8250  4.71608e+21
      16.8300  4.71133e+21
      16.8350  4.70658e+21
      16.8400  4.70182e+21
      16.8450  4.69635e+21
      16.8500  4.69042e+21
      16.8550  4.68450e+21
      16.8600  4.67857e+21
      16.8650  4.67265e+21
      16.8700  4.66672e+21
      16.8750  4.66080e+21
      16.8800  4.65487e+21
      16.8850  4.64895e+21
      16.8900  4.64304e+21
      16.8950  4.63713e+21
      16.9000  4.63122e+21
      16.9050  4.62531e+21
      16.9100  4.61940e+21
      16.9150  4.61348e+21
      16.9200  4.60757e+21
      16.9250  4.60166e+21
      16.9300  4.59661e+21
      16.9350  4.59189e+21
      16.9400  4.58718e+21
      16.9450  4.58246e+21
      16.9500  4.57774e+21
      16.9550  4.57303e+21
      16.9600  4.56831e+21
      16.9650  4.56359e+21
      16.9700  4.55860e+21
      16.9750  4.55272e+21
      16.9800  4.54684e+21
      16.9850  4.54096e+21
      16.9900  4.53508e+21
      16.9950  4.52919e+21
      17.0000  4.52331e+21
      17.0050  4.51743e+21
      17.0100  4.51155e+21
      17.0150  4.50655e+21
      17.0200  4.50185e+21
      17.0250  4.49716e+21
      17.0300  4.49247e+21
      17.0350  4.48777e+21
      17.0400  4.48308e+21
      17.0450  4.47839e+21
      17.0500  4.47370e+21
      17.0550  4.46900e+21
      17.0600  4.46432e+21
      17.0650  4.45964e+21
      17.0700  4.45496e+21
      17.0750  4.45028e+21
      17.0800  4.44560e+21
      17.0850  4.44092e+21
      17.0900  4.43623e+21
      17.0950  4.43155e+21
      17.1000  4.42610e+21
      17.1050  4.42026e+21
      17.1100  4.41442e+21
      17.1150  4.40859e+21
      17.1200  4.40275e+21
      17.1250  4.39691e+21
      17.1300  4.39108e+21
      17.1350  4.38524e+21
      17.1400  4.37952e+21
      17.1450  4.37486e+21
      17.1500  4.37021e+21
      17.1550  4.36555e+21
      17.1600  4.36089e+21
      17.1650  4.35623e+21
      17.1700  4.35157e+21
      17.1750  4.34692e+21
      17.1800  4.34226e+21
      17.1850  4.33761e+21
      17.1900  4.33296e+21
      17.1950  4.32831e+21
      17.2000  4.32367e+21
      17.2050  4.31902e+21
      17.2100  4.31437e+21
      17.2150  4.30973e+21
      17.2200  4.30508e+21
      17.2250  4.30043e+21
      17.2300  4.29475e+21
      17.2350  4.28895e+21
      17.2400  4.28316e+21
      17.2450  4.27737e+21
      17.2500  4.27157e+21
      17.2550  4.26578e+21
      17.2600  4.25999e+21
      17.2650  4.25419e+21
      17.2700  4.24872e+21
      17.2750  4.24410e+21
      17.2800  4.23948e+21
      17.2850  4.23485e+21
      17.2900  4.23023e+21
      17.2950  4.22561e+21
      17.3000  4.22099e+21
      17.3050  4.21636e+21
      17.3100  4.21174e+21
      17.3150  4.20712e+21
      17.3200  4.20251e+21
      17.3250  4.19790e+21
      17.3300  4.19329e+21
      17.3350  4.18868e+21
      17.3400  4.18406e+21
      17.3450  4.17945e+21
      17.3500  4.17484e+21
      17.3550  4.17023e+21
      17.3600  4.16563e+21
      17.3650  4.16103e+21
      17.3700  4.15643e+21
      17.3750  4.15183e+21
      17.3800  4.14723e+21
      17.3850  4.14263e+21
      17.3900  4.13803e+21
      17.3950  4.13343e+21
      17.4000  4.12883e+21
      17.4050  4.12424e+21
      17.4100  4.11965e+21
      17.4150  4.11506e+21
      17.4200  4.11048e+21
      17.4250  4.10589e+21
      17.4300  4.10130e+21
      17.4350  4.09671e+21
      17.4400  4.09212e+21
      17.4450  4.08754e+21
      17.4500  4.08296e+21
      17.4550  4.07839e+21
      17.4600  4.07381e+21
      17.4650  4.06923e+21
      17.4700  4.06465e+21
      17.4750  4.06008e+21
      17.4800  4.05550e+21
      17.4850  4.05092e+21
      17.4900  4.04635e+21
      17.4950  4.04179e+21
      17.5000  4.03722e+21
      17.5050  4.03266e+21
      17.5100  4.02809e+21
      17.5150  4.02353e+21
      17.5200  4.01896e+21
      17.5250  4.01439e+21
      17.5300  4.00983e+21
      17.5350  4.00527e+21
      17.5400  4.00072e+21
      17.5450  3.99617e+21
      17.5500  3.99161e+21
      17.5550  3.98706e+21
      17.5600  3.98250e+21
      17.5650  3.97795e+21
      17.5700  3.97339e+21
      17.5750  3.96884e+21
      17.5800  3.96430e+21
      17.5850  3.95976e+21
      17.5900  3.95521e+21
      17.5950  3.95067e+21
      17.6000  3.94613e+21
      17.6050  3.94159e+21
      17.6100  3.93704e+21
      17.6150  3.93250e+21
      17.6200  3.92796e+21
      17.6250  3.92343e+21
      17.6300  3.91890e+21
      17.6350  3.91437e+21
      17.6400  3.90983e+21
      17.6450  3.90530e+21
      17.6500  3.90077e+21
      17.6550  3.89624e+21
      17.6600  3.89171e+21
      17.6650  3.88718e+21
      17.6700  3.88266e+21
      17.6750  3.87814e+21
      17.6800  3.87362e+21
      17.6850  3.86910e+21
      17.6900  3.86458e+21
      17.6950  3.86006e+21
      17.7000  3.85554e+21
      17.7050  3.85102e+21
      17.7100  3.84651e+21
      17.7150  3.84200e+21
      17.7200  3.83749e+21
      17.7250  3.83298e+21
      17.7300  3.82848e+21
      17.7350  3.82397e+21
      17.7400  3.81946e+21
      17.7450  3.81495e+21
      17.7500  3.81044e+21
      17.7550  3.80696e+21
      17.7600  3.80358e+21
      17.7650  3.80021e+21
      17.7700  3.79684e+21
      17.7750  3.79346e+21
      17.7800  3.79009e+21
      17.7850  3.78672e+21
      17.7900  3.78334e+21
      17.7950  3.77996e+21
      17.8000  3.77547e+21
      17.8050  3.77099e+21
      17.8100  3.76650e+21
      17.8150  3.76201e+21
      17.8200  3.75753e+21
      17.8250  3.75304e+21
      17.8300  3.74855e+21
      17.8350  3.74407e+21
      17.8400  3.73958e+21
      17.8450  3.73511e+21
      17.8500  3.73063e+21
      17.8550  3.72616e+21
      17.8600  3.72168e+21
      17.8650  3.71721e+21
      17.8700  3.71273e+21
      17.8750  3.70826e+21
      17.8800  3.70378e+21
      17.8850  3.69948e+21
      17.8900  3.69613e+21
      17.8950  3.69278e+21
      17.9000  3.68944e+21
      17.9050  3.68609e+21
      17.9100  3.68274e+21
      17.9150  3.67939e+21
      17.9200  3.67604e+21
      17.9250  3.67270e+21
      17.9300  3.66913e+21
      17.9350  3.66468e+21
      17.9400  3.66023e+21
      17.9450  3.65577e+21
      17.9500  3.65132e+21
      17.9550  3.64687e+21
      17.9600  3.64242e+21
      17.9650  3.63796e+21
      17.9700  3.63351e+21
      17.9750  3.62906e+21
      17.9800  3.62462e+21
      17.9850  3.62017e+21
      17.9900  3.61573e+21
      17.9950  3.61129e+21
      18.0000  3.60685e+21
      18.0050  3.60241e+21
      18.0100  3.59797e+21
      18.0150  3.59352e+21
      18.0200  3.58931e+21
      18.0250  3.58599e+21
      18.0300  3.58267e+21
      18.0350  3.57934e+21
      18.0400  3.57602e+21
      18.0450  3.57270e+21
      18.0500  3.56938e+21
      18.0550  3.56605e+21
      18.0600  3.56273e+21
      18.0650  3.55921e+21
      18.0700  3.55479e+21
      18.0750  3.55037e+21
      18.0800  3.54595e+21
      18.0850  3.54153e+21
      18.0900  3.53711e+21
      18.0950  3.53269e+21
      18.1000  3.52827e+21
      18.1050  3.52385e+21
      18.1100  3.51958e+21
      18.1150  3.51627e+21
      18.1200  3.51296e+21
      18.1250  3.50966e+21
      18.1300  3.50635e+21
      18.1350  3.50304e+21
      18.1400  3.49974e+21
      18.1450  3.49643e+21
      18.1500  3.49313e+21
      18.1550  3.48976e+21
      18.1600  3.48536e+21
      18.1650  3.48096e+21
      18.1700  3.47657e+21
      18.1750  3.47217e+21
      18.1800  3.46777e+21
      18.1850  3.46337e+21
      18.1900  3.45898e+21
      18.1950  3.45458e+21
      18.2000  3.45018e+21
      18.2050  3.44685e+21
      18.2100  3.44356e+21
      18.2150  3.44027e+21
      18.2200  3.43698e+21
      18.2250  3.43369e+21
      18.2300  3.43040e+21
      18.2350  3.42711e+21
      18.2400  3.42382e+21
      18.2450  3.42053e+21
      18.2500  3.41724e+21
      18.2550  3.41396e+21
      18.2600  3.41068e+21
      18.2650  3.40740e+21
      18.2700  3.40412e+21
      18.2750  3.40083e+21
      18.2800  3.39755e+21
      18.2850  3.39427e+21
      18.2900  3.39099e+21
      18.2950  3.38695e+21
      18.3000  3.38259e+21
      18.3050  3.37822e+21
      18.3100  3.37386e+21
      18.3150  3.36949e+21
      18.3200  3.36513e+21
      18.3250  3.36076e+21
      18.3300  3.35640e+21
      18.3350  3.35203e+21
      18.3400  3.34826e+21
      18.3450  3.34499e+21
      18.3500  3.34173e+21
      18.3550  3.33846e+21
      18.3600  3.33520e+21
      18.3650  3.33193e+21
      18.3700  3.32866e+21
      18.3750  3.32540e+21
      18.3800  3.32213e+21
      18.3850  3.31887e+21
      18.3900  3.31562e+21
      18.3950  3.31236e+21
      18.4000  3.30910e+21
      18.4050  3.30584e+21
      18.4100  3.30259e+21
      18.4150  3.29933e+21
      18.4200  3.29607e+21
      18.4250  3.29282e+21
      18.4300  3.28941e+21
      18.4350  3.28508e+21
      18.4400  3.28075e+21
      18.4450  3.27642e+21
      18.4500  3.27208e+21
      18.4550  3.26775e+21
      18.4600  3.26342e+21
      18.4650  3.25909e+21
      18.4700  3.25476e+21
      18.4750  3.25042e+21
      18.4800  3.24708e+21
      18.4850  3.24383e+21
      18.4900  3.24059e+21
      18.4950  3.23735e+21
      18.5000  3.23411e+21
      18.5050  3.23087e+21
      18.5100  3.22763e+21
      18.5150  3.22439e+21
      18.5200  3.22115e+21
      18.5250  3.21791e+21
      18.5300  3.21468e+21
      18.5350  3.21145e+21
      18.5400  3.20821e+21
      18.5450  3.20498e+21
      18.5500  3.20175e+21
      18.5550  3.19852e+21
      18.5600  3.19528e+21
      18.5650  3.19205e+21
      18.5700  3.18882e+21
      18.5750  3.18560e+21
      18.5800  3.18237e+21
      18.5850  3.17915e+21
      18.5900  3.17592e+21
      18.5950  3.17270e+21
      18.6000  3.16947e+21
      18.6050  3.16625e+21
      18.6100  3.16302e+21
      18.6150  3.15980e+21
      18.6200  3.15658e+21
      18.6250  3.15337e+21
      18.6300  3.15015e+21
      18.6350  3.14693e+21
      18.6400  3.14372e+21
      18.6450  3.14050e+21
      18.6500  3.13728e+21
      18.6550  3.13407e+21
      18.6600  3.13085e+21
      18.6650  3.12764e+21
      18.6700  3.12443e+21
      18.6750  3.12122e+21
      18.6800  3.11801e+21
      18.6850  3.11480e+21
      18.6900  3.11159e+21
      18.6950  3.10839e+21
      18.7000  3.10518e+21
      18.7050  3.10197e+21
      18.7100  3.09876e+21
      18.7150  3.09556e+21
      18.7200  3.09236e+21
      18.7250  3.08916e+21
      18.7300  3.08596e+21
      18.7350  3.08276e+21
      18.7400  3.07956e+21
      18.7450  3.07636e+21
      18.7500  3.07316e+21
      18.7550  3.06996e+21
      18.7600  3.06677e+21
      18.7650  3.06357e+21
      18.7700  3.06038e+21
      18.7750  3.05719e+21
      18.7800  3.05399e+21
      18.7850  3.05080e+21
      18.7900  3.04761e+21
      18.7950  3.04442e+21
      18.8000  3.04123e+21
      18.8050  3.03804e+21
      18.8100  3.03485e+21
      18.8150  3.03167e+21
      18.8200  3.02848e+21
      18.8250  3.02530e+21
      18.8300  3.02211e+21
      18.8350  3.01893e+21
      18.8400  3.01574e+21
      18.8450  3.01256e+21
      18.8500  3.00938e+21
      18.8550  3.00620e+21
      18.8600  3.00302e+21
      18.8650  2.99985e+21
      18.8700  2.99667e+21
      18.8750  2.99349e+21
      18.8800  2.99032e+21
      18.8850  2.98714e+21
      18.8900  2.98396e+21
      18.8950  2.98079e+21
      18.9000  2.97762e+21
      18.9050  2.97445e+21
      18.9100  2.97128e+21
      18.9150  2.96811e+21
      18.9200  2.96494e+21
      18.9250  2.96177e+21
      18.9300  2.95860e+21
      18.9350  2.95544e+21
      18.9400  2.95227e+21
      18.9450  2.94910e+21
      18.9500  2.94594e+21
      18.9550  2.94278e+21
      18.9600  2.93962e+21
      18.9650  2.93646e+21
      18.9700  2.93330e+21
      18.9750  2.93013e+21
      18.9800  2.92697e+21
      18.9850  2.92381e+21
      18.9900  2.92065e+21
      18.9950  2.91750e+21
      19.0000  2.91434e+21
      19.0050  2.91119e+21
      19.0100  2.90804e+21
      19.0150  2.90489e+21
      19.0200  2.90173e+21
      19.0250  2.89858e+21
      19.0300  2.89543e+21
      19.0350  2.89227e+21
      19.0400  2.88912e+21
      19.0450  2.88598e+21
      19.0500  2.88283e+21
      19.0550  2.87969e+21
      19.0600  2.87654e+21
      19.0650  2.87340e+21
      19.0700  2.87025e+21
      19.0750  2.86711e+21
      19.0800  2.86396e+21
      19.0850  2.86082e+21
      19.0900  2.85768e+21
      19.0950  2.85454e+21
      19.1000  2.85140e+21
      19.1050  2.84827e+21
      19.1100  2.84513e+21
      19.1150  2.84199e+21
      19.1200  2.83886e+21
      19.1250  2.83572e+21
      19.1300  2.83258e+21
      19.1350  2.82945e+21
      19.1400  2.82632e+21
      19.1450  2.82319e+21
      19.1500  2.82006e+21
      19.1550  2.81693e+21
      19.1600  2.81380e+21
      19.1650  2.81067e+21
      19.1700  2.80754e+21
      19.1750  2.80441e+21
      19.1800  2.80128e+21
      19.1850  2.79877e+21
      19.1900  2.79669e+21
      19.1950  2.79461e+21
      19.2000  2.79253e+21
      19.2050  2.79045e+21
      19.2100  2.78837e+21
      19.2150  2.78629e+21
      19.2200  2.78420e+21
      19.2250  2.78212e+21
      19.2300  2.78004e+21
      19.2350  2.77695e+21
      19.2400  2.77384e+21
      19.2450  2.77072e+21
      19.2500  2.76761e+21
      19.2550  2.76450e+21
      19.2600  2.76138e+21
      19.2650  2.75827e+21
      19.2700  2.75515e+21
      19.2750  2.75204e+21
      19.2800  2.74893e+21
      19.2850  2.74582e+21
      19.2900  2.74272e+21
      19.2950  2.73961e+21
      19.3000  2.73651e+21
      19.3050  2.73340e+21
      19.3100  2.73029e+21
      19.3150  2.72719e+21
      19.3200  2.72408e+21
      19.3250  2.72097e+21
      19.3300  2.71788e+21
      19.3350  2.71478e+21
      19.3400  2.71168e+21
      19.3450  2.70858e+21
      19.3500  2.70548e+21
      19.3550  2.70238e+21
      19.3600  2.69929e+21
      19.3650  2.69619e+21
      19.3700  2.69309e+21
      19.3750  2.68999e+21
      19.3800  2.68793e+21
      19.3850  2.68587e+21
      19.3900  2.68381e+21
      19.3950  2.68175e+21
      19.4000  2.67969e+21
      19.4050  2.67763e+21
      19.4100  2.67557e+21
      19.4150  2.67351e+21
      19.4200  2.67145e+21
      19.4250  2.66909e+21
      19.4300  2.66601e+21
      19.4350  2.66292e+21
      19.4400  2.65984e+21
      19.4450  2.65676e+21
      19.4500  2.65368e+21
      19.4550  2.65059e+21
      19.4600  2.64751e+21
      19.4650  2.64443e+21
      19.4700  2.64135e+21
      19.4750  2.63884e+21
      19.4800  2.63679e+21
      19.4850  2.63474e+21
      19.4900  2.63269e+21
      19.4950  2.63064e+21
      19.5000  2.62859e+21
      19.5050  2.62654e+21
      19.5100  2.62449e+21
      19.5150  2.62244e+21
      19.5200  2.62039e+21
      19.5250  2.61752e+21
      19.5300  2.61445e+21
      19.5350  2.61139e+21
      19.5400  2.60832e+21
      19.5450  2.60525e+21
      19.5500  2.60219e+21
      19.5550  2.59912e+21
      19.5600  2.59605e+21
      19.5650  2.59298e+21
      19.5700  2.58992e+21
      19.5750  2.58686e+21
      19.5800  2.58380e+21
      19.5850  2.58074e+21
      19.5900  2.57768e+21
      19.5950  2.57462e+21
      19.6000  2.57156e+21
      19.6050  2.56850e+21
      19.6100  2.56544e+21
      19.6150  2.56238e+21
      19.6200  2.55955e+21
      19.6250  2.55751e+21
      19.6300  2.55548e+21
      19.6350  2.55344e+21
      19.6400  2.55141e+21
      19.6450  2.54937e+21
      19.6500  2.54734e+21
      19.6550  2.54531e+21
      19.6600  2.54327e+21
      19.6650  2.54124e+21
      19.6700  2.53880e+21
      19.6750  2.53576e+21
      19.6800  2.53272e+21
      19.6850  2.52967e+21
      19.6900  2.52663e+21
      19.6950  2.52358e+21
      19.7000  2.52054e+21
      19.7050  2.51749e+21
      19.7100  2.51445e+21
      19.7150  2.51141e+21
      19.7200  2.50891e+21
      19.7250  2.50689e+21
      19.7300  2.50486e+21
      19.7350  2.50284e+21
      19.7400  2.50081e+21
      19.7450  2.49879e+21
      19.7500  2.49676e+21
      19.7550  2.49474e+21
      19.7600  2.49271e+21
      19.7650  2.49069e+21
      19.7700  2.48800e+21
      19.7750  2.48497e+21
      19.7800  2.48194e+21
      19.7850  2.47891e+21
      19.7900  2.47589e+21
      19.7950  2.47286e+21
      19.8000  2.46983e+21
      19.8050  2.46680e+21
      19.8100  2.46377e+21
      19.8150  2.46074e+21
      19.8200  2.45848e+21
      19.8250  2.45646e+21
      19.8300  2.45445e+21
      19.8350  2.45243e+21
      19.8400  2.45042e+21
      19.8450  2.44841e+21
      19.8500  2.44639e+21
      19.8550  2.44438e+21
      19.8600  2.44236e+21
      19.8650  2.44035e+21
      19.8700  2.43834e+21
      19.8750  2.43633e+21
      19.8800  2.43432e+21
      19.8850  2.43231e+21
      19.8900  2.43030e+21
      19.8950  2.42829e+21
      19.9000  2.42628e+21
      19.9050  2.42427e+21
      19.9100  2.42226e+21
      19.9150  2.42025e+21
      19.9200  2.41737e+21
      19.9250  2.41437e+21
      19.9300  2.41136e+21
      19.9350  2.40835e+21
      19.9400  2.40535e+21
      19.9450  2.40234e+21
      19.9500  2.39933e+21
      19.9550  2.39633e+21
      19.9600  2.39332e+21
      19.9650  2.39031e+21
      19.9700  2.38821e+21
      19.9750  2.38621e+21
      19.9800  2.38421e+21
      19.9850  2.38221e+21
      19.9900  2.38021e+21
      19.9950  2.37821e+21
      20.0000  2.37621e+21
      20.0050  2.37421e+21
      20.0100  2.37221e+21
      20.0150  2.37021e+21
      20.0200  2.36733e+21
      20.0250  2.36434e+21
      20.0300  2.36135e+21
      20.0350  2.35836e+21
      20.0400  2.35536e+21
      20.0450  2.35237e+21
      20.0500  2.34938e+21
      20.0550  2.34639e+21
      20.0600  2.34340e+21
      20.0650  2.34041e+21
      20.0700  2.33828e+21
      20.0750  2.33629e+21
      20.0800  2.33430e+21
      20.0850  2.33231e+21
      20.0900  2.33032e+21
      20.0950  2.32833e+21
      20.1000  2.32634e+21
      20.1050  2.32436e+21
      20.1100  2.32237e+21
      20.1150  2.32038e+21
      20.1200  2.31839e+21
      20.1250  2.31641e+21
      20.1300  2.31442e+21
      20.1350  2.31244e+21
      20.1400  2.31045e+21
      20.1450  2.30847e+21
      20.1500  2.30648e+21
      20.1550  2.30450e+21
      20.1600  2.30252e+21
      20.1650  2.30053e+21
      20.1700  2.29855e+21
      20.1750  2.29657e+21
      20.1800  2.29459e+21
      20.1850  2.29261e+21
      20.1900  2.29063e+21
      20.1950  2.28865e+21
      20.2000  2.28667e+21
      20.2050  2.28469e+21
      20.2100  2.28272e+21
      20.2150  2.28074e+21
      20.2200  2.27814e+21
      20.2250  2.27518e+21
      20.2300  2.27222e+21
      20.2350  2.26925e+21
      20.2400  2.26629e+21
      20.2450  2.26333e+21
      20.2500  2.26037e+21
      20.2550  2.25741e+21
      20.2600  2.25444e+21
      20.2650  2.25148e+21
      20.2700  2.24902e+21
      20.2750  2.24705e+21
      20.2800  2.24508e+21
      20.2850  2.24311e+21
      20.2900  2.24114e+21
      20.2950  2.23917e+21
      20.3000  2.23720e+21
      20.3050  2.23523e+21
      20.3100  2.23326e+21
      20.3150  2.23129e+21
      20.3200  2.22932e+21
      20.3250  2.22736e+21
      20.3300  2.22539e+21
      20.3350  2.22343e+21
      20.3400  2.22146e+21
      20.3450  2.21950e+21
      20.3500  2.21754e+21
      20.3550  2.21557e+21
      20.3600  2.21361e+21
      20.3650  2.21164e+21
      20.3700  2.20968e+21
      20.3750  2.20772e+21
      20.3800  2.20576e+21
      20.3850  2.20380e+21
      20.3900  2.20184e+21
      20.3950  2.19988e+21
      20.4000  2.19792e+21
      20.4050  2.19596e+21
      20.4100  2.19400e+21
      20.4150  2.19204e+21
      20.4200  2.19008e+21
      20.4250  2.18813e+21
      20.4300  2.18617e+21
      20.4350  2.18422e+21
      20.4400  2.18226e+21
      20.4450  2.18031e+21
      20.4500  2.17835e+21
      20.4550  2.17640e+21
      20.4600  2.17444e+21
      20.4650  2.17249e+21
      20.4700  2.17053e+21
      20.4750  2.16787e+21
      20.4800  2.16495e+21
      20.4850  2.16202e+21
      20.4900  2.15910e+21
      20.4950  2.15617e+21
      20.5000  2.15325e+21
      20.5050  2.15032e+21
      20.5100  2.14740e+21
      20.5150  2.14447e+21
      20.5200  2.14155e+21
      20.5250  2.13908e+21
      20.5300  2.13714e+21
      20.5350  2.13519e+21
      20.5400  2.13325e+21
      20.5450  2.13130e+21
      20.5500  2.12936e+21
      20.5550  2.12741e+21
      20.5600  2.12547e+21
      20.5650  2.12352e+21
      20.5700  2.12158e+21
      20.5750  2.11963e+21
      20.5800  2.11769e+21
      20.5850  2.11575e+21
      20.5900  2.11381e+21
      20.5950  2.11187e+21
      20.6000  2.10993e+21
      20.6050  2.10799e+21
      20.6100  2.10605e+21
      20.6150  2.10411e+21
      20.6200  2.10217e+21
      20.6250  2.10023e+21
      20.6300  2.09830e+21
      20.6350  2.09636e+21
      20.6400  2.09442e+21
      20.6450  2.09249e+21
      20.6500  2.09055e+21
      20.6550  2.08862e+21
      20.6600  2.08668e+21
      20.6650  2.08475e+21
      20.6700  2.08281e+21
      20.6750  2.08088e+21
      20.6800  2.07894e+21
      20.6850  2.07701e+21
      20.6900  2.07508e+21
      20.6950  2.07315e+21
      20.7000  2.07122e+21
      20.7050  2.06929e+21
      20.7100  2.06736e+21
      20.7150  2.06543e+21
      20.7200  2.06350e+21
      20.7250  2.06157e+21
      20.7300  2.05964e+21
      20.7350  2.05771e+21
      20.7400  2.05579e+21
      20.7450  2.05386e+21
      20.7500  2.05194e+21
      20.7550  2.05001e+21
      20.7600  2.04809e+21
      20.7650  2.04616e+21
      20.7700  2.04423e+21
      20.7750  2.04231e+21
      20.7800  2.04038e+21
      20.7850  2.03846e+21
      20.7900  2.03654e+21
      20.7950  2.03462e+21
      20.8000  2.03270e+21
      20.8050  2.03078e+21
      20.8100  2.02886e+21
      20.8150  2.02693e+21
      20.8200  2.02501e+21
      20.8250  2.02309e+21
      20.8300  2.02117e+21
      20.8350  2.01925e+21
      20.8400  2.01734e+21
      20.8450  2.01542e+21
      20.8500  2.01351e+21
      20.8550  2.01159e+21
      20.8600  2.00967e+21
      20.8650  2.00776e+21
      20.8700  2.00584e+21
      20.8750  2.00393e+21
      20.8800  2.00201e+21
      20.8850  2.00009e+21
      20.8900  1.99818e+21
      20.8950  1.99627e+21
      20.9000  1.99436e+21
      20.9050  1.99245e+21
      20.9100  1.99054e+21
      20.9150  1.98862e+21
      20.9200  1.98671e+21
      20.9250  1.98480e+21
      20.9300  1.98289e+21
      20.9350  1.98098e+21
      20.9400  1.97907e+21
      20.9450  1.97716e+21
      20.9500  1.97526e+21
      20.9550  1.97335e+21
      20.9600  1.97144e+21
      20.9650  1.96954e+21
      20.9700  1.96763e+21
      20.9750  1.96572e+21
      20.9800  1.96382e+21
      20.9850  1.96191e+21
      20.9900  1.96001e+21
      20.9950  1.95810e+21
      21.0000  1.95620e+21
      21.0050  1.95430e+21
      21.0100  1.95240e+21
      21.0150  1.95050e+21
      21.0200  1.94859e+21
      21.0250  1.94669e+21
      21.0300  1.94479e+21
      21.0350  1.94289e+21
      21.0400  1.94099e+21
      21.0450  1.93909e+21
      21.0500  1.93719e+21
      21.0550  1.93529e+21
      21.0600  1.93340e+21
      21.0650  1.93150e+21
      21.0700  1.92960e+21
      21.0750  1.92771e+21
      21.0800  1.92581e+21
      21.0850  1.92391e+21
      21.0900  1.92201e+21
      21.0950  1.92012e+21
      21.1000  1.91823e+21
      21.1050  1.91633e+21
      21.1100  1.91444e+21
      21.1150  1.91255e+21
      21.1200  1.91066e+21
      21.1250  1.90876e+21
      21.1300  1.90687e+21
      21.1350  1.90498e+21
      21.1400  1.90309e+21
      21.1450  1.90119e+21
      21.1500  1.89930e+21
      21.1550  1.89742e+21
      21.1600  1.89553e+21
      21.1650  1.89364e+21
      21.1700  1.89175e+21
      21.1750  1.88987e+21
      21.1800  1.88798e+21
      21.1850  1.88609e+21
      21.1900  1.88420e+21
      21.1950  1.88232e+21
      21.2000  1.88043e+21
      21.2050  1.87927e+21
      21.2100  1.87833e+21
      21.2150  1.87739e+21
      21.2200  1.87645e+21
      21.2250  1.87551e+21
      21.2300  1.87457e+21
      21.2350  1.87362e+21
      21.2400  1.87268e+21
      21.2450  1.87174e+21
      21.2500  1.87080e+21
      21.2550  1.86972e+21
      21.2600  1.86784e+21
      21.2650  1.86596e+21
      21.2700  1.86408e+21
      21.2750  1.86220e+21
      21.2800  1.86033e+21
      21.2850  1.85845e+21
      21.2900  1.85657e+21
      21.2950  1.85469e+21
      21.3000  1.85281e+21
      21.3050  1.85094e+21
      21.3100  1.84906e+21
      21.3150  1.84719e+21
      21.3200  1.84531e+21
      21.3250  1.84344e+21
      21.3300  1.84157e+21
      21.3350  1.83969e+21
      21.3400  1.83782e+21
      21.3450  1.83595e+21
      21.3500  1.83407e+21
      21.3550  1.83220e+21
      21.3600  1.83033e+21
      21.3650  1.82846e+21
      21.3700  1.82659e+21
      21.3750  1.82472e+21
      21.3800  1.82285e+21
      21.3850  1.82098e+21
      21.3900  1.81911e+21
      21.3950  1.81724e+21
      21.4000  1.81538e+21
      21.4050  1.81351e+21
      21.4100  1.81164e+21
      21.4150  1.80977e+21
      21.4200  1.80791e+21
      21.4250  1.80604e+21
      21.4300  1.80418e+21
      21.4350  1.80231e+21
      21.4400  1.80045e+21
      21.4450  1.79858e+21
      21.4500  1.79672e+21
      21.4550  1.79486e+21
      21.4600  1.79299e+21
      21.4650  1.79113e+21
      21.4700  1.78963e+21
      21.4750  1.78870e+21
      21.4800  1.78777e+21
      21.4850  1.78684e+21
      21.4900  1.78591e+21
      21.4950  1.78498e+21
      21.5000  1.78406e+21
      21.5050  1.78313e+21
      21.5100  1.78220e+21
      21.5150  1.78127e+21
      21.5200  1.78034e+21
      21.5250  1.77882e+21
      21.5300  1.77696e+21
      21.5350  1.77511e+21
      21.5400  1.77325e+21
      21.5450  1.77140e+21
      21.5500  1.76954e+21
      21.5550  1.76769e+21
      21.5600  1.76583e+21
      21.5650  1.76398e+21
      21.5700  1.76212e+21
      21.5750  1.76027e+21
      21.5800  1.75842e+21
      21.5850  1.75657e+21
      21.5900  1.75472e+21
      21.5950  1.75287e+21
      21.6000  1.75102e+21
      21.6050  1.74917e+21
      21.6100  1.74732e+21
      21.6150  1.74547e+21
      21.6200  1.74362e+21
      21.6250  1.74177e+21
      21.6300  1.73992e+21
      21.6350  1.73807e+21
      21.6400  1.73623e+21
      21.6450  1.73438e+21
      21.6500  1.73253e+21
      21.6550  1.73069e+21
      21.6600  1.72884e+21
      21.6650  1.72700e+21
      21.6700  1.72515e+21
      21.6750  1.72331e+21
      21.6800  1.72146e+21
      21.6850  1.71981e+21
      21.6900  1.71889e+21
      21.6950  1.71797e+21
      21.7000  1.71705e+21
      21.7050  1.71613e+21
      21.7100  1.71521e+21
      21.7150  1.71429e+21
      21.7200  1.71337e+21
      21.7250  1.71244e+21
      21.7300  1.71152e+21
      21.7350  1.71060e+21
      21.7400  1.70937e+21
      21.7450  1.70753e+21
      21.7500  1.70570e+21
      21.7550  1.70386e+21
      21.7600  1.70202e+21
      21.7650  1.70019e+21
      21.7700  1.69835e+21
      21.7750  1.69651e+21
      21.7800  1.69468e+21
      21.7850  1.69284e+21
      21.7900  1.69100e+21
      21.7950  1.68917e+21
      21.8000  1.68734e+21
      21.8050  1.68551e+21
      21.8100  1.68368e+21
      21.8150  1.68184e+21
      21.8200  1.68001e+21
      21.8250  1.67818e+21
      21.8300  1.67635e+21
      21.8350  1.67452e+21
      21.8400  1.67269e+21
      21.8450  1.67085e+21
      21.8500  1.66951e+21
      21.8550  1.66860e+21
      21.8600  1.66769e+21
      21.8650  1.66677e+21
      21.8700  1.66586e+21
      21.8750  1.66494e+21
      21.8800  1.66403e+21
      21.8850  1.66312e+21
      21.8900  1.66220e+21
      21.8950  1.66129e+21
      21.9000  1.66038e+21
      21.9050  1.65893e+21
      21.9100  1.65711e+21
      21.9150  1.65528e+21
      21.9200  1.65346e+21
      21.9250  1.65164e+21
      21.9300  1.64982e+21
      21.9350  1.64799e+21
      21.9400  1.64617e+21
      21.9450  1.64435e+21
      21.9500  1.64253e+21
      21.9550  1.64070e+21
      21.9600  1.63888e+21
      21.9650  1.63706e+21
      21.9700  1.63525e+21
      21.9750  1.63343e+21
      21.9800  1.63161e+21
      21.9850  1.62979e+21
      21.9900  1.62797e+21
      21.9950  1.62616e+21
      22.0000  1.62434e+21
      22.0050  1.62252e+21
      22.0100  1.62070e+21
      22.0150  1.61944e+21
      22.0200  1.61854e+21
      22.0250  1.61763e+21
      22.0300  1.61672e+21
      22.0350  1.61582e+21
      22.0400  1.61491e+21
      22.0450  1.61400e+21
      22.0500  1.61310e+21
      22.0550  1.61219e+21
      22.0600  1.61128e+21
      22.0650  1.61038e+21
      22.0700  1.60894e+21
      22.0750  1.60713e+21
      22.0800  1.60532e+21
      22.0850  1.60352e+21
      22.0900  1.60171e+21
      22.0950  1.59990e+21
      22.1000  1.59809e+21
      22.1050  1.59628e+21
      22.1100  1.59447e+21
      22.1150  1.59266e+21
      22.1200  1.59085e+21
      22.1250  1.58952e+21
      22.1300  1.58862e+21
      22.1350  1.58772e+21
      22.1400  1.58682e+21
      22.1450  1.58591e+21
      22.1500  1.58501e+21
      22.1550  1.58411e+21
      22.1600  1.58321e+21
      22.1650  1.58231e+21
      22.1700  1.58140e+21
      22.1750  1.58050e+21
      22.1800  1.57920e+21
      22.1850  1.57740e+21
      22.1900  1.57560e+21
      22.1950  1.57380e+21
      22.2000  1.57200e+21
      22.2050  1.57020e+21
      22.2100  1.56840e+21
      22.2150  1.56660e+21
      22.2200  1.56480e+21
      22.2250  1.56300e+21
      22.2300  1.56120e+21
      22.2350  1.55940e+21
      22.2400  1.55761e+21
      22.2450  1.55581e+21
      22.2500  1.55402e+21
      22.2550  1.55222e+21
      22.2600  1.55042e+21
      22.2650  1.54863e+21
      22.2700  1.54683e+21
      22.2750  1.54504e+21
      22.2800  1.54324e+21
      22.2850  1.54145e+21
      22.2900  1.53983e+21
      22.2950  1.53893e+21
      22.3000  1.53804e+21
      22.3050  1.53714e+21
      22.3100  1.53624e+21
      22.3150  1.53535e+21
      22.3200  1.53445e+21
      22.3250  1.53356e+21
      22.3300  1.53266e+21
      22.3350  1.53177e+21
      22.3400  1.53087e+21
      22.3450  1.52995e+21
      22.3500  1.52817e+21
      22.3550  1.52638e+21
      22.3600  1.52459e+21
      22.3650  1.52281e+21
      22.3700  1.52102e+21
      22.3750  1.51923e+21
      22.3800  1.51745e+21
      22.3850  1.51566e+21
      22.3900  1.51388e+21
      22.3950  1.51209e+21
      22.4000  1.51030e+21
      22.4050  1.50926e+21
      22.4100  1.50837e+21
      22.4150  1.50748e+21
      22.4200  1.50659e+21
      22.4250  1.50570e+21
      22.4300  1.50480e+21
      22.4350  1.50391e+21
      22.4400  1.50302e+21
      22.4450  1.50213e+21
      22.4500  1.50124e+21
      22.4550  1.50035e+21
      22.4600  1.49892e+21
      22.4650  1.49714e+21
      22.4700  1.49537e+21
      22.4750  1.49359e+21
      22.4800  1.49181e+21
      22.4850  1.49003e+21
      22.4900  1.48825e+21
      22.4950  1.48648e+21
      22.5000  1.48470e+21
      22.5050  1.48292e+21
      22.5100  1.48114e+21
      22.5150  1.47968e+21
      22.5200  1.47880e+21
      22.5250  1.47791e+21
      22.5300  1.47702e+21
      22.5350  1.47614e+21
      22.5400  1.47525e+21
      22.5450  1.47436e+21
      22.5500  1.47348e+21
      22.5550  1.47259e+21
      22.5600  1.47171e+21
      22.5650  1.47082e+21
      22.5700  1.46993e+21
      22.5750  1.46905e+21
      22.5800  1.46816e+21
      22.5850  1.46728e+21
      22.5900  1.46640e+21
      22.5950  1.46551e+21
      22.6000  1.46463e+21
      22.6050  1.46374e+21
      22.6100  1.46286e+21
      22.6150  1.46197e+21
      22.6200  1.46109e+21
      22.6250  1.46020e+21
      22.6300  1.45864e+21
      22.6350  1.45688e+21
      22.6400  1.45512e+21
      22.6450  1.45335e+21
      22.6500  1.45159e+21
      22.6550  1.44982e+21
      22.6600  1.44806e+21
      22.6650  1.44629e+21
      22.6700  1.44453e+21
      22.6750  1.44277e+21
      22.6800  1.44100e+21
      22.6850  1.43962e+21
      22.6900  1.43874e+21
      22.6950  1.43786e+21
      22.7000  1.43698e+21
      22.7050  1.43610e+21
      22.7100  1.43522e+21
      22.7150  1.43434e+21
      22.7200  1.43346e+21
      22.7250  1.43258e+21
      22.7300  1.43170e+21
      22.7350  1.43082e+21
      22.7400  1.42988e+21
      22.7450  1.42813e+21
      22.7500  1.42637e+21
      22.7550  1.42462e+21
      22.7600  1.42286e+21
      22.7650  1.42110e+21
      22.7700  1.41935e+21
      22.7750  1.41759e+21
      22.7800  1.41584e+21
      22.7850  1.41408e+21
      22.7900  1.41233e+21
      22.7950  1.41057e+21
      22.8000  1.40941e+21
      22.8050  1.40853e+21
      22.8100  1.40766e+21
      22.8150  1.40678e+21
      22.8200  1.40591e+21
      22.8250  1.40503e+21
      22.8300  1.40416e+21
      22.8350  1.40328e+21
      22.8400  1.40241e+21
      22.8450  1.40153e+21
      22.8500  1.40065e+21
      22.8550  1.39956e+21
      22.8600  1.39781e+21
      22.8650  1.39607e+21
      22.8700  1.39432e+21
      22.8750  1.39257e+21
      22.8800  1.39083e+21
      22.8850  1.38908e+21
      22.8900  1.38733e+21
      22.8950  1.38559e+21
      22.9000  1.38384e+21
      22.9050  1.38209e+21
      22.9100  1.38035e+21
      22.9150  1.37930e+21
      22.9200  1.37843e+21
      22.9250  1.37756e+21
      22.9300  1.37669e+21
      22.9350  1.37582e+21
      22.9400  1.37495e+21
      22.9450  1.37407e+21
      22.9500  1.37320e+21
      22.9550  1.37233e+21
      22.9600  1.37146e+21
      22.9650  1.37059e+21
      22.9700  1.36972e+21
      22.9750  1.36885e+21
      22.9800  1.36798e+21
      22.9850  1.36711e+21
      22.9900  1.36624e+21
      22.9950  1.36537e+21
      23.0000  1.36451e+21
      23.0050  1.36364e+21
      23.0100  1.36277e+21
      23.0150  1.36190e+21
      23.0200  1.36103e+21
      23.0250  1.36016e+21
      23.0300  1.35859e+21
      23.0350  1.35685e+21
      23.0400  1.35512e+21
      23.0450  1.35339e+21
      23.0500  1.35165e+21
      23.0550  1.34992e+21
      23.0600  1.34819e+21
      23.0650  1.34645e+21
      23.0700  1.34472e+21
      23.0750  1.34298e+21
      23.0800  1.34125e+21
      23.0850  1.33976e+21
      23.0900  1.33889e+21
      23.0950  1.33803e+21
      23.1000  1.33717e+21
      23.1050  1.33630e+21
      23.1100  1.33544e+21
      23.1150  1.33457e+21
      23.1200  1.33371e+21
      23.1250  1.33284e+21
      23.1300  1.33198e+21
      23.1350  1.33111e+21
      23.1400  1.33025e+21
      23.1450  1.32938e+21
      23.1500  1.32852e+21
      23.1550  1.32766e+21
      23.1600  1.32680e+21
      23.1650  1.32593e+21
      23.1700  1.32507e+21
      23.1750  1.32421e+21
      23.1800  1.32335e+21
      23.1850  1.32248e+21
      23.1900  1.32162e+21
      23.1950  1.32076e+21
      23.2000  1.31980e+21
      23.2050  1.31807e+21
      23.2100  1.31635e+21
      23.2150  1.31463e+21
      23.2200  1.31291e+21
      23.2250  1.31119e+21
      23.2300  1.30947e+21
      23.2350  1.30775e+21
      23.2400  1.30603e+21
      23.2450  1.30431e+21
      23.2500  1.30259e+21
      23.2550  1.30087e+21
      23.2600  1.29957e+21
      23.2650  1.29872e+21
      23.2700  1.29786e+21
      23.2750  1.29700e+21
      23.2800  1.29614e+21
      23.2850  1.29528e+21
      23.2900  1.29443e+21
      23.2950  1.29357e+21
      23.3000  1.29271e+21
      23.3050  1.29185e+21
      23.3100  1.29099e+21
      23.3150  1.29013e+21
      23.3200  1.28928e+21
      23.3250  1.28842e+21
      23.3300  1.28757e+21
      23.3350  1.28671e+21
      23.3400  1.28585e+21
      23.3450  1.28500e+21
      23.3500  1.28414e+21
      23.3550  1.28329e+21
      23.3600  1.28243e+21
      23.3650  1.28157e+21
      23.3700  1.28072e+21
      23.3750  1.27986e+21
      23.3800  1.27901e+21
      23.3850  1.27815e+21
      23.3900  1.27730e+21
      23.3950  1.27645e+21
      23.4000  1.27559e+21
      23.4050  1.27474e+21
      23.4100  1.27389e+21
      23.4150  1.27303e+21
      23.4200  1.27218e+21
      23.4250  1.27132e+21
      23.4300  1.27047e+21
      23.4350  1.26923e+21
      23.4400  1.26753e+21
      23.4450  1.26583e+21
      23.4500  1.26412e+21
      23.4550  1.26242e+21
      23.4600  1.26072e+21
      23.4650  1.25901e+21
      23.4700  1.25731e+21
      23.4750  1.25561e+21
      23.4800  1.25390e+21
      23.4850  1.25220e+21
      23.4900  1.25050e+21
      23.4950  1.24940e+21
      23.5000  1.24855e+21
      23.5050  1.24770e+21
      23.5100  1.24685e+21
      23.5150  1.24600e+21
      23.5200  1.24515e+21
      23.5250  1.24430e+21
      23.5300  1.24345e+21
      23.5350  1.24260e+21
      23.5400  1.24175e+21
      23.5450  1.24090e+21
      23.5500  1.24005e+21
      23.5550  1.23920e+21
      23.5600  1.23836e+21
      23.5650  1.23751e+21
      23.5700  1.23666e+21
      23.5750  1.23581e+21
      23.5800  1.23497e+21
      23.5850  1.23412e+21
      23.5900  1.23327e+21
      23.5950  1.23242e+21
      23.6000  1.23158e+21
      23.6050  1.23073e+21
      23.6100  1.22988e+21
      23.6150  1.22904e+21
      23.6200  1.22819e+21
      23.6250  1.22735e+21
      23.6300  1.22650e+21
      23.6350  1.22565e+21
      23.6400  1.22481e+21
      23.6450  1.22396e+21
      23.6500  1.22312e+21
      23.6550  1.22227e+21
      23.6600  1.22143e+21
      23.6650  1.22058e+21
      23.6700  1.21947e+21
      23.6750  1.21779e+21
      23.6800  1.21610e+21
      23.6850  1.21442e+21
      23.6900  1.21273e+21
      23.6950  1.21104e+21
      23.7000  1.20936e+21
      23.7050  1.20767e+21
      23.7100  1.20598e+21
      23.7150  1.20430e+21
      23.7200  1.20261e+21
      23.7250  1.20092e+21
      23.7300  1.19962e+21
      23.7350  1.19878e+21
      23.7400  1.19794e+21
      23.7450  1.19710e+21
      23.7500  1.19625e+21
      23.7550  1.19541e+21
      23.7600  1.19457e+21
      23.7650  1.19373e+21
      23.7700  1.19289e+21
      23.7750  1.19205e+21
      23.7800  1.19121e+21
      23.7850  1.19037e+21
      23.7900  1.18953e+21
      23.7950  1.18869e+21
      23.8000  1.18785e+21
      23.8050  1.18701e+21
      23.8100  1.18617e+21
      23.8150  1.18533e+21
      23.8200  1.18449e+21
      23.8250  1.18365e+21
      23.8300  1.18281e+21
      23.8350  1.18197e+21
      23.8400  1.18114e+21
      23.8450  1.18030e+21
      23.8500  1.17946e+21
      23.8550  1.17862e+21
      23.8600  1.17778e+21
      23.8650  1.17695e+21
      23.8700  1.17611e+21
      23.8750  1.17527e+21
      23.8800  1.17444e+21
      23.8850  1.17360e+21
      23.8900  1.17276e+21
      23.8950  1.17193e+21
      23.9000  1.17109e+21
      23.9050  1.17025e+21
      23.9100  1.16942e+21
      23.9150  1.16858e+21
      23.9200  1.16775e+21
      23.9250  1.16691e+21
      23.9300  1.16608e+21
      23.9350  1.16524e+21
      23.9400  1.16441e+21
      23.9450  1.16357e+21
      23.9500  1.16274e+21
      23.9550  1.16190e+21
      23.9600  1.16107e+21
      23.9650  1.16023e+21
      23.9700  1.15940e+21
      23.9750  1.15857e+21
      23.9800  1.15773e+21
      23.9850  1.15690e+21
      23.9900  1.15607e+21
      23.9950  1.15524e+21
      24.0000  1.15440e+21
      24.0050  1.15357e+21
      24.0100  1.15274e+21
      24.0150  1.15190e+21
      24.0200  1.15107e+21
      24.0250  1.15024e+21
      24.0300  1.14881e+21
      24.0350  1.14715e+21
      24.0400  1.14549e+21
      24.0450  1.14383e+21
      24.0500  1.14217e+21
      24.0550  1.14051e+21
      24.0600  1.13885e+21
      24.0650  1.13718e+21
      24.0700  1.13552e+21
      24.0750  1.13386e+21
      24.0800  1.13220e+21
      24.0850  1.13054e+21
      24.0900  1.12944e+21
      24.0950  1.12861e+21
      24.1000  1.12778e+21
      24.1050  1.12695e+21
      24.1100  1.12613e+21
      24.1150  1.12530e+21
      24.1200  1.12447e+21
      24.1250  1.12364e+21
      24.1300  1.12281e+21
      24.1350  1.12198e+21
      24.1400  1.12115e+21
      24.1450  1.12033e+21
      24.1500  1.11950e+21
      24.1550  1.11867e+21
      24.1600  1.11784e+21
      24.1650  1.11702e+21
      24.1700  1.11619e+21
      24.1750  1.11537e+21
      24.1800  1.11454e+21
      24.1850  1.11371e+21
      24.1900  1.11289e+21
      24.1950  1.11206e+21
      24.2000  1.11123e+21
      24.2050  1.11041e+21
      24.2100  1.10958e+21
      24.2150  1.10876e+21
      24.2200  1.10793e+21
      24.2250  1.10711e+21
      24.2300  1.10628e+21
      24.2350  1.10546e+21
      24.2400  1.10463e+21
      24.2450  1.10381e+21
      24.2500  1.10298e+21
      24.2550  1.10216e+21
      24.2600  1.10134e+21
      24.2650  1.10051e+21
      24.2700  1.09969e+21
      24.2750  1.09886e+21
      24.2800  1.09804e+21
      24.2850  1.09722e+21
      24.2900  1.09640e+21
      24.2950  1.09557e+21
      24.3000  1.09475e+21
      24.3050  1.09393e+21
      24.3100  1.09311e+21
      24.3150  1.09228e+21
      24.3200  1.09146e+21
      24.3250  1.09064e+21
      24.3300  1.08982e+21
      24.3350  1.08900e+21
      24.3400  1.08818e+21
      24.3450  1.08736e+21
      24.3500  1.08654e+21
      24.3550  1.08572e+21
      24.3600  1.08490e+21
      24.3650  1.08408e+21
      24.3700  1.08325e+21
      24.3750  1.08243e+21
      24.3800  1.08161e+21
      24.3850  1.08079e+21
      24.3900  1.07997e+21
      24.3950  1.07916e+21
      24.4000  1.07834e+21
      24.4050  1.07752e+21
      24.4100  1.07670e+21
      24.4150  1.07588e+21
      24.4200  1.07506e+21
      24.4250  1.07425e+21
      24.4300  1.07343e+21
      24.4350  1.07261e+21
      24.4400  1.07179e+21
      24.4450  1.07097e+21
      24.4500  1.07015e+21
      24.4550  1.06934e+21
      24.4600  1.06852e+21
      24.4650  1.06770e+21
      24.4700  1.06689e+21
      24.4750  1.06607e+21
      24.4800  1.06526e+21
      24.4850  1.06444e+21
      24.4900  1.06362e+21
      24.4950  1.06281e+21
      24.5000  1.06199e+21
      24.5050  1.06117e+21
      24.5100  1.06036e+21
      24.5150  1.05954e+21
      24.5200  1.05873e+21
      24.5250  1.05791e+21
      24.5300  1.05710e+21
      24.5350  1.05629e+21
      24.5400  1.05547e+21
      24.5450  1.05466e+21
      24.5500  1.05384e+21
      24.5550  1.05303e+21
      24.5600  1.05221e+21
      24.5650  1.05140e+21
      24.5700  1.05059e+21
      24.5750  1.04977e+21
      24.5800  1.04896e+21
      24.5850  1.04815e+21
      24.5900  1.04734e+21
      24.5950  1.04652e+21
      24.6000  1.04571e+21
      24.6050  1.04490e+21
      24.6100  1.04409e+21
      24.6150  1.04327e+21
      24.6200  1.04246e+21
      24.6250  1.04165e+21
      24.6300  1.04084e+21
      24.6350  1.04003e+21
      24.6400  1.03922e+21
      24.6450  1.03841e+21
      24.6500  1.03760e+21
      24.6550  1.03678e+21
      24.6600  1.03597e+21
      24.6650  1.03516e+21
      24.6700  1.03435e+21
      24.6750  1.03354e+21
      24.6800  1.03273e+21
      24.6850  1.03192e+21
      24.6900  1.03111e+21
      24.6950  1.03030e+21
      24.7000  1.02949e+21
      24.7050  1.02869e+21
      24.7100  1.02788e+21
      24.7150  1.02707e+21
      24.7200  1.02626e+21
      24.7250  1.02545e+21
      24.7300  1.02465e+21
      24.7350  1.02384e+21
      24.7400  1.02303e+21
      24.7450  1.02222e+21
      24.7500  1.02141e+21
      24.7550  1.02060e+21
      24.7600  1.01980e+21
      24.7650  1.01899e+21
      24.7700  1.01818e+21
      24.7750  1.01738e+21
      24.7800  1.01657e+21
      24.7850  1.01577e+21
      24.7900  1.01496e+21
      24.7950  1.01415e+21
      24.8000  1.01335e+21
      24.8050  1.01254e+21
      24.8100  1.01174e+21
      24.8150  1.01093e+21
      24.8200  1.01012e+21
      24.8250  1.00911e+21
      24.8300  1.00807e+21
      24.8350  1.00702e+21
      24.8400  1.00598e+21
      24.8450  1.00493e+21
      24.8500  1.00389e+21
      24.8550  1.00284e+21
      24.8600  1.00180e+21
      24.8650  1.00075e+21
      24.8700  9.99706e+20
      24.8750  9.98661e+20
      24.8800  9.97616e+20
      24.8850  9.96670e+20
      24.8900  9.95868e+20
      24.8950  9.95066e+20
      24.9000  9.94264e+20
      24.9050  9.93462e+20
      24.9100  9.92660e+20
      24.9150  9.91857e+20
      24.9200  9.91055e+20
      24.9250  9.90253e+20
      24.9300  9.89451e+20
      24.9350  9.88649e+20
      24.9400  9.87847e+20
      24.9450  9.87045e+20
      24.9500  9.86245e+20
      24.9550  9.85445e+20
      24.9600  9.84645e+20
      24.9650  9.83844e+20
      24.9700  9.83044e+20
      24.9750  9.82244e+20
      24.9800  9.81444e+20
      24.9850  9.80644e+20
      24.9900  9.79844e+20
      24.9950  9.79043e+20
      25.0000  9.78243e+20
      25.0050  9.77443e+20
      25.0100  9.76680e+20
      25.0150  9.75961e+20
      25.0200  9.75243e+20
      25.0250  9.74525e+20
      25.0300  9.73806e+20
      25.0350  9.73088e+20
      25.0400  9.72370e+20
      25.0450  9.71651e+20
      25.0500  9.70933e+20
      25.0550  9.70215e+20
      25.0600  9.69497e+20
      25.0650  9.68778e+20
      25.0700  9.68060e+20
      25.0750  9.67270e+20
      25.0800  9.66474e+20
      25.0850  9.65678e+20
      25.0900  9.64882e+20
      25.0950  9.64086e+20
      25.1000  9.63290e+20
      25.1050  9.62494e+20
      25.1100  9.61697e+20
      25.1150  9.60901e+20
      25.1200  9.60105e+20
      25.1250  9.59309e+20
      25.1300  9.58513e+20
      25.1350  9.57718e+20
      25.1400  9.56924e+20
      25.1450  9.56129e+20
      25.1500  9.55335e+20
      25.1550  9.54541e+20
      25.1600  9.53747e+20
      25.1650  9.52953e+20
      25.1700  9.52159e+20
      25.1750  9.51365e+20
      25.1800  9.50570e+20
      25.1850  9.49776e+20
      25.1900  9.48982e+20
      25.1950  9.48188e+20
      25.2000  9.47456e+20
      25.2050  9.46743e+20
      25.2100  9.46030e+20
      25.2150  9.45317e+20
      25.2200  9.44604e+20
      25.2250  9.43891e+20
      25.2300  9.43178e+20
      25.2350  9.42465e+20
      25.2400  9.41753e+20
      25.2450  9.41039e+20
      25.2500  9.40327e+20
      25.2550  9.39614e+20
      25.2600  9.38901e+20
      25.2650  9.38190e+20
      25.2700  9.37479e+20
      25.2750  9.36768e+20
      25.2800  9.36056e+20
      25.2850  9.35345e+20
      25.2900  9.34634e+20
      25.2950  9.33923e+20
      25.3000  9.33212e+20
      25.3050  9.32501e+20
      25.3100  9.31790e+20
      25.3150  9.31078e+20
      25.3200  9.30367e+20
      25.3250  9.29657e+20
      25.3300  9.28948e+20
      25.3350  9.28238e+20
      25.3400  9.27529e+20
      25.3450  9.26820e+20
      25.3500  9.26110e+20
      25.3550  9.25401e+20
      25.3600  9.24691e+20
      25.3650  9.23982e+20
      25.3700  9.23273e+20
      25.3750  9.22563e+20
      25.3800  9.21854e+20
      25.3850  9.21145e+20
      25.3900  9.20374e+20
      25.3950  9.19588e+20
      25.4000  9.18802e+20
      25.4050  9.18015e+20
      25.4100  9.17229e+20
      25.4150  9.16443e+20
      25.4200  9.15657e+20
      25.4250  9.14871e+20
      25.4300  9.14084e+20
      25.4350  9.13298e+20
      25.4400  9.12512e+20
      25.4450  9.11726e+20
      25.4500  9.10945e+20
      25.4550  9.10240e+20
      25.4600  9.09534e+20
      25.4650  9.08828e+20
      25.4700  9.08122e+20
      25.4750  9.07416e+20
      25.4800  9.06711e+20
      25.4850  9.06005e+20
      25.4900  9.05299e+20
      25.4950  9.04593e+20
      25.5000  9.03887e+20
      25.5050  9.03181e+20
      25.5100  9.02475e+20
      25.5150  9.01770e+20
      25.5200  9.01066e+20
      25.5250  9.00362e+20
      25.5300  8.99658e+20
      25.5350  8.98954e+20
      25.5400  8.98250e+20
      25.5450  8.97546e+20
      25.5500  8.96842e+20
      25.5550  8.96138e+20
      25.5600  8.95434e+20
      25.5650  8.94730e+20
      25.5700  8.94026e+20
      25.5750  8.93321e+20
      25.5800  8.92661e+20
      25.5850  8.92037e+20
      25.5900  8.91412e+20
      25.5950  8.90788e+20
      25.6000  8.90164e+20
      25.6050  8.89540e+20
      25.6100  8.88915e+20
      25.6150  8.88291e+20
      25.6200  8.87666e+20
      25.6250  8.87042e+20
      25.6300  8.86418e+20
      25.6350  8.85794e+20
      25.6400  8.85170e+20
      25.6450  8.84490e+20
      25.6500  8.83789e+20
      25.6550  8.83088e+20
      25.6600  8.82388e+20
      25.6650  8.81687e+20
      25.6700  8.80987e+20
      25.6750  8.80286e+20
      25.6800  8.79586e+20
      25.6850  8.78885e+20
      25.6900  8.78185e+20
      25.6950  8.77484e+20
      25.7000  8.76784e+20
      25.7050  8.76083e+20
      25.7100  8.75384e+20
      25.7150  8.74685e+20
      25.7200  8.73987e+20
      25.7250  8.73288e+20
      25.7300  8.72589e+20
      25.7350  8.71890e+20
      25.7400  8.71191e+20
      25.7450  8.70492e+20
      25.7500  8.69794e+20
      25.7550  8.69095e+20
      25.7600  8.68396e+20
      25.7650  8.67697e+20
      25.7700  8.66999e+20
      25.7750  8.66379e+20
      25.7800  8.65759e+20
      25.7850  8.65140e+20
      25.7900  8.64520e+20
      25.7950  8.63901e+20
      25.8000  8.63281e+20
      25.8050  8.62661e+20
      25.8100  8.62042e+20
      25.8150  8.61422e+20
      25.8200  8.60802e+20
      25.8250  8.60183e+20
      25.8300  8.59563e+20
      25.8350  8.58937e+20
      25.8400  8.58241e+20
      25.8450  8.57546e+20
      25.8500  8.56851e+20
      25.8550  8.56156e+20
      25.8600  8.55460e+20
      25.8650  8.54765e+20
      25.8700  8.54069e+20
      25.8750  8.53374e+20
      25.8800  8.52679e+20
      25.8850  8.51984e+20
      25.8900  8.51288e+20
      25.8950  8.50593e+20
      25.9000  8.49909e+20
      25.9050  8.49293e+20
      25.9100  8.48676e+20
      25.9150  8.48060e+20
      25.9200  8.47443e+20
      25.9250  8.46827e+20
      25.9300  8.46210e+20
      25.9350  8.45594e+20
      25.9400  8.44977e+20
      25.9450  8.44361e+20
      25.9500  8.43744e+20
      25.9550  8.43128e+20
      25.9600  8.42511e+20
      25.9650  8.41882e+20
      25.9700  8.41190e+20
      25.9750  8.40498e+20
      25.9800  8.39806e+20
      25.9850  8.39114e+20
      25.9900  8.38423e+20
      25.9950  8.37731e+20
      26.0000  8.37039e+20
      26.0050  8.36347e+20
      26.0100  8.35655e+20
      26.0150  8.34963e+20
      26.0200  8.34271e+20
      26.0250  8.33580e+20
      26.0300  8.32900e+20
      26.0350  8.32287e+20
      26.0400  8.31673e+20
      26.0450  8.31060e+20
      26.0500  8.30447e+20
      26.0550  8.29833e+20
      26.0600  8.29220e+20
      26.0650  8.28606e+20
      26.0700  8.27993e+20
      26.0750  8.27379e+20
      26.0800  8.26766e+20
      26.0850  8.26153e+20
      26.0900  8.25539e+20
      26.0950  8.24926e+20
      26.1000  8.24314e+20
      26.1050  8.23702e+20
      26.1100  8.23090e+20
      26.1150  8.22478e+20
      26.1200  8.21866e+20
      26.1250  8.21255e+20
      26.1300  8.20643e+20
      26.1350  8.20031e+20
      26.1400  8.19419e+20
      26.1450  8.18807e+20
      26.1500  8.18195e+20
      26.1550  8.17583e+20
      26.1600  8.16971e+20
      26.1650  8.16361e+20
      26.1700  8.15751e+20
      26.1750  8.15140e+20
      26.1800  8.14530e+20
      26.1850  8.13919e+20
      26.1900  8.13309e+20
      26.1950  8.12699e+20
      26.2000  8.12088e+20
      26.2050  8.11478e+20
      26.2100  8.10868e+20
      26.2150  8.10257e+20
      26.2200  8.09647e+20
      26.2250  8.09036e+20
      26.2300  8.08427e+20
      26.2350  8.07818e+20
      26.2400  8.07210e+20
      26.2450  8.06601e+20
      26.2500  8.05992e+20
      26.2550  8.05383e+20
      26.2600  8.04774e+20
      26.2650  8.04166e+20
      26.2700  8.03557e+20
      26.2750  8.02948e+20
      26.2800  8.02339e+20
      26.2850  8.01730e+20
      26.2900  8.01121e+20
      26.2950  8.00514e+20
      26.3000  7.99906e+20
      26.3050  7.99299e+20
      26.3100  7.98692e+20
      26.3150  7.98084e+20
      26.3200  7.97477e+20
      26.3250  7.96870e+20
      26.3300  7.96262e+20
      26.3350  7.95655e+20
      26.3400  7.95048e+20
      26.3450  7.94441e+20
      26.3500  7.93833e+20
      26.3550  7.93226e+20
      26.3600  7.92619e+20
      26.3650  7.92014e+20
      26.3700  7.91408e+20
      26.3750  7.90802e+20
      26.3800  7.90196e+20
      26.3850  7.89590e+20
      26.3900  7.88985e+20
      26.3950  7.88379e+20
      26.4000  7.87773e+20
      26.4050  7.87167e+20
      26.4100  7.86561e+20
      26.4150  7.85955e+20
      26.4200  7.85350e+20
      26.4250  7.84745e+20
      26.4300  7.84140e+20
      26.4350  7.83536e+20
      26.4400  7.82932e+20
      26.4450  7.82327e+20
      26.4500  7.81723e+20
      26.4550  7.81119e+20
      26.4600  7.80514e+20
      26.4650  7.79910e+20
      26.4700  7.79306e+20
      26.4750  7.78701e+20
      26.4800  7.78097e+20
      26.4850  7.77493e+20
      26.4900  7.76889e+20
      26.4950  7.76286e+20
      26.5000  7.75683e+20
      26.5050  7.75081e+20
      26.5100  7.74478e+20
      26.5150  7.73875e+20
      26.5200  7.73272e+20
      26.5250  7.72669e+20
      26.5300  7.72067e+20
      26.5350  7.71464e+20
      26.5400  7.70861e+20
      26.5450  7.70258e+20
      26.5500  7.69656e+20
      26.5550  7.69053e+20
      26.5600  7.68520e+20
      26.5650  7.67994e+20
      26.5700  7.67468e+20
      26.5750  7.66941e+20
      26.5800  7.66415e+20
      26.5850  7.65889e+20
      26.5900  7.65363e+20
      26.5950  7.64837e+20
      26.6000  7.64311e+20
      26.6050  7.63785e+20
      26.6100  7.63259e+20
      26.6150  7.62733e+20
      26.6200  7.62206e+20
      26.6250  7.61636e+20
      26.6300  7.61036e+20
      26.6350  7.60436e+20
      26.6400  7.59836e+20
      26.6450  7.59236e+20
      26.6500  7.58637e+20
      26.6550  7.58037e+20
      26.6600  7.57437e+20
      26.6650  7.56837e+20
      26.6700  7.56238e+20
      26.6750  7.55638e+20
      26.6800  7.55038e+20
      26.6850  7.54438e+20
      26.6900  7.53859e+20
      26.6950  7.53336e+20
      26.7000  7.52812e+20
      26.7050  7.52289e+20
      26.7100  7.51765e+20
      26.7150  7.51242e+20
      26.7200  7.50718e+20
      26.7250  7.50194e+20
      26.7300  7.49671e+20
      26.7350  7.49147e+20
      26.7400  7.48624e+20
      26.7450  7.48101e+20
      26.7500  7.47577e+20
      26.7550  7.47054e+20
      26.7600  7.46464e+20
      26.7650  7.45868e+20
      26.7700  7.45271e+20
      26.7750  7.44674e+20
      26.7800  7.44077e+20
      26.7850  7.43480e+20
      26.7900  7.42884e+20
      26.7950  7.42287e+20
      26.8000  7.41690e+20
      26.8050  7.41093e+20
      26.8100  7.40497e+20
      26.8150  7.39900e+20
      26.8200  7.39303e+20
      26.8250  7.38744e+20
      26.8300  7.38223e+20
      26.8350  7.37702e+20
      26.8400  7.37181e+20
      26.8450  7.36660e+20
      26.8500  7.36139e+20
      26.8550  7.35618e+20
      26.8600  7.35097e+20
      26.8650  7.34577e+20
      26.8700  7.34056e+20
      26.8750  7.33535e+20
      26.8800  7.33014e+20
      26.8850  7.32493e+20
      26.8900  7.31972e+20
      26.8950  7.31453e+20
      26.9000  7.30933e+20
      26.9050  7.30413e+20
      26.9100  7.29894e+20
      26.9150  7.29374e+20
      26.9200  7.28855e+20
      26.9250  7.28335e+20
      26.9300  7.27816e+20
      26.9350  7.27296e+20
      26.9400  7.26776e+20
      26.9450  7.26257e+20
      26.9500  7.25737e+20
      26.9550  7.25218e+20
      26.9600  7.24699e+20
      26.9650  7.24181e+20
      26.9700  7.23662e+20
      26.9750  7.23144e+20
      26.9800  7.22626e+20
      26.9850  7.22107e+20
      26.9900  7.21589e+20
      26.9950  7.21071e+20
      27.0000  7.20553e+20
      27.0050  7.20034e+20
      27.0100  7.19516e+20
      27.0150  7.18998e+20
      27.0200  7.18479e+20
      27.0250  7.17956e+20
      27.0300  7.17365e+20
      27.0350  7.16774e+20
      27.0400  7.16183e+20
      27.0450  7.15592e+20
      27.0500  7.15002e+20
      27.0550  7.14411e+20
      27.0600  7.13820e+20
      27.0650  7.13229e+20
      27.0700  7.12638e+20
      27.0750  7.12047e+20
      27.0800  7.11457e+20
      27.0850  7.10866e+20
      27.0900  7.10275e+20
      27.0950  7.09724e+20
      27.1000  7.09208e+20
      27.1050  7.08693e+20
      27.1100  7.08177e+20
      27.1150  7.07661e+20
      27.1200  7.07146e+20
      27.1250  7.06630e+20
      27.1300  7.06114e+20
      27.1350  7.05599e+20
      27.1400  7.05083e+20
      27.1450  7.04567e+20
      27.1500  7.04052e+20
      27.1550  7.03536e+20
      27.1600  7.03020e+20
      27.1650  7.02506e+20
      27.1700  7.01991e+20
      27.1750  7.01477e+20
      27.1800  7.00963e+20
      27.1850  7.00448e+20
      27.1900  6.99934e+20
      27.1950  6.99419e+20
      27.2000  6.98905e+20
      27.2050  6.98391e+20
      27.2100  6.97876e+20
      27.2150  6.97362e+20
      27.2200  6.96847e+20
      27.2250  6.96333e+20
      27.2300  6.95845e+20
      27.2350  6.95405e+20
      27.2400  6.94965e+20
      27.2450  6.94525e+20
      27.2500  6.94085e+20
      27.2550  6.93646e+20
      27.2600  6.93206e+20
      27.2650  6.92766e+20
      27.2700  6.92326e+20
      27.2750  6.91886e+20
      27.2800  6.91447e+20
      27.2850  6.91007e+20
      27.2900  6.90567e+20
      27.2950  6.90127e+20
      27.3000  6.89636e+20
      27.3050  6.89124e+20
      27.3100  6.88613e+20
      27.3150  6.88101e+20
      27.3200  6.87589e+20
      27.3250  6.87077e+20
      27.3300  6.86565e+20
      27.3350  6.86053e+20
      27.3400  6.85541e+20
      27.3450  6.85030e+20
      27.3500  6.84518e+20
      27.3550  6.84006e+20
      27.3600  6.83494e+20
      27.3650  6.82982e+20
      27.3700  6.82472e+20
      27.3750  6.81961e+20
      27.3800  6.81451e+20
      27.3850  6.80940e+20
      27.3900  6.80430e+20
      27.3950  6.79919e+20
      27.4000  6.79408e+20
      27.4050  6.78898e+20
      27.4100  6.78387e+20
      27.4150  6.77877e+20
      27.4200  6.77366e+20
      27.4250  6.76856e+20
      27.4300  6.76345e+20
      27.4350  6.75835e+20
      27.4400  6.75326e+20
      27.4450  6.74816e+20
      27.4500  6.74307e+20
      27.4550  6.73798e+20
      27.4600  6.73289e+20
      27.4650  6.72779e+20
      27.4700  6.72270e+20
      27.4750  6.71761e+20
      27.4800  6.71251e+20
      27.4850  6.70742e+20
      27.4900  6.70233e+20
      27.4950  6.69723e+20
      27.5000  6.69214e+20
      27.5050  6.68748e+20
      27.5100  6.68312e+20
      27.5150  6.67877e+20
      27.5200  6.67441e+20
      27.5250  6.67006e+20
      27.5300  6.66571e+20
      27.5350  6.66135e+20
      27.5400  6.65700e+20
      27.5450  6.65264e+20
      27.5500  6.64829e+20
      27.5550  6.64393e+20
      27.5600  6.63958e+20
      27.5650  6.63522e+20
      27.5700  6.63087e+20
      27.5750  6.62594e+20
      27.5800  6.62088e+20
      27.5850  6.61581e+20
      27.5900  6.61074e+20
      27.5950  6.60568e+20
      27.6000  6.60061e+20
      27.6050  6.59554e+20
      27.6100  6.59047e+20
      27.6150  6.58541e+20
      27.6200  6.58034e+20
      27.6250  6.57527e+20
      27.6300  6.57021e+20
      27.6350  6.56514e+20
      27.6400  6.56007e+20
      27.6450  6.55501e+20
      27.6500  6.54996e+20
      27.6550  6.54490e+20
      27.6600  6.53985e+20
      27.6650  6.53479e+20
      27.6700  6.52974e+20
      27.6750  6.52469e+20
      27.6800  6.51963e+20
      27.6850  6.51458e+20
      27.6900  6.50952e+20
      27.6950  6.50447e+20
      27.7000  6.49941e+20
      27.7050  6.49436e+20
      27.7100  6.48940e+20
      27.7150  6.48508e+20
      27.7200  6.48076e+20
      27.7250  6.47644e+20
      27.7300  6.47212e+20
      27.7350  6.46779e+20
      27.7400  6.46347e+20
      27.7450  6.45915e+20
      27.7500  6.45483e+20
      27.7550  6.45051e+20
      27.7600  6.44619e+20
      27.7650  6.44187e+20
      27.7700  6.43754e+20
      27.7750  6.43322e+20
      27.7800  6.42890e+20
      27.7850  6.42459e+20
      27.7900  6.42028e+20
      27.7950  6.41597e+20
      27.8000  6.41166e+20
      27.8050  6.40735e+20
      27.8100  6.40304e+20
      27.8150  6.39872e+20
      27.8200  6.39441e+20
      27.8250  6.39010e+20
      27.8300  6.38579e+20
      27.8350  6.38148e+20
      27.8400  6.37717e+20
      27.8450  6.37286e+20
      27.8500  6.36831e+20
      27.8550  6.36329e+20
      27.8600  6.35828e+20
      27.8650  6.35326e+20
      27.8700  6.34824e+20
      27.8750  6.34323e+20
      27.8800  6.33821e+20
      27.8850  6.33319e+20
      27.8900  6.32818e+20
      27.8950  6.32316e+20
      27.9000  6.31814e+20
      27.9050  6.31312e+20
      27.9100  6.30811e+20
      27.9150  6.30309e+20
      27.9200  6.29835e+20
      27.9250  6.29406e+20
      27.9300  6.28977e+20
      27.9350  6.28548e+20
      27.9400  6.28119e+20
      27.9450  6.27690e+20
      27.9500  6.27261e+20
      27.9550  6.26833e+20
      27.9600  6.26404e+20
      27.9650  6.25975e+20
      27.9700  6.25546e+20
      27.9750  6.25117e+20
      27.9800  6.24688e+20
      27.9850  6.24259e+20
      27.9900  6.23830e+20
      27.9950  6.23402e+20
      28.0000  6.22975e+20
      28.0050  6.22547e+20
      28.0100  6.22119e+20
      28.0150  6.21691e+20
      28.0200  6.21263e+20
      28.0250  6.20835e+20
      28.0300  6.20407e+20
      28.0350  6.19980e+20
      28.0400  6.19552e+20
      28.0450  6.19124e+20
      28.0500  6.18696e+20
      28.0550  6.18268e+20
      28.0600  6.17841e+20
      28.0650  6.17414e+20
      28.0700  6.16987e+20
      28.0750  6.16560e+20
      28.0800  6.16133e+20
      28.0850  6.15707e+20
      28.0900  6.15280e+20
      28.0950  6.14853e+20
      28.1000  6.14426e+20
      28.1050  6.13999e+20
      28.1100  6.13572e+20
      28.1150  6.13146e+20
      28.1200  6.12719e+20
      28.1250  6.12292e+20
      28.1300  6.11866e+20
      28.1350  6.11440e+20
      28.1400  6.11014e+20
      28.1450  6.10588e+20
      28.1500  6.10163e+20
      28.1550  6.09737e+20
      28.1600  6.09311e+20
      28.1650  6.08885e+20
      28.1700  6.08460e+20
      28.1750  6.08034e+20
      28.1800  6.07608e+20
      28.1850  6.07182e+20
      28.1900  6.06757e+20
      28.1950  6.06331e+20
      28.2000  6.05905e+20
      28.2050  6.05481e+20
      28.2100  6.05056e+20
      28.2150  6.04631e+20
      28.2200  6.04207e+20
      28.2250  6.03782e+20
      28.2300  6.03357e+20
      28.2350  6.02933e+20
      28.2400  6.02508e+20
      28.2450  6.02083e+20
      28.2500  6.01659e+20
      28.2550  6.01234e+20
      28.2600  6.00809e+20
      28.2650  6.00385e+20
      28.2700  5.99960e+20
      28.2750  5.99536e+20
      28.2800  5.99113e+20
      28.2850  5.98689e+20
      28.2900  5.98265e+20
      28.2950  5.97842e+20
      28.3000  5.97418e+20
      28.3050  5.96995e+20
      28.3100  5.96571e+20
      28.3150  5.96147e+20
      28.3200  5.95724e+20
      28.3250  5.95300e+20
      28.3300  5.94877e+20
      28.3350  5.94453e+20
      28.3400  5.94029e+20
      28.3450  5.93607e+20
      28.3500  5.93184e+20
      28.3550  5.92762e+20
      28.3600  5.92339e+20
      28.3650  5.91917e+20
      28.3700  5.91494e+20
      28.3750  5.91071e+20
      28.3800  5.90649e+20
      28.3850  5.90226e+20
      28.3900  5.89804e+20
      28.3950  5.89381e+20
      28.4000  5.88959e+20
      28.4050  5.88536e+20
      28.4100  5.88113e+20
      28.4150  5.87692e+20
      28.4200  5.87270e+20
      28.4250  5.86849e+20
      28.4300  5.86427e+20
      28.4350  5.86006e+20
      28.4400  5.85584e+20
      28.4450  5.85163e+20
      28.4500  5.84741e+20
      28.4550  5.84320e+20
      28.4600  5.83898e+20
      28.4650  5.83477e+20
      28.4700  5.83055e+20
      28.4750  5.82634e+20
      28.4800  5.82212e+20
      28.4850  5.81791e+20
      28.4900  5.81371e+20
      28.4950  5.80950e+20
      28.5000  5.80530e+20
      28.5050  5.80110e+20
      28.5100  5.79689e+20
      28.5150  5.79269e+20
      28.5200  5.78848e+20
      28.5250  5.78428e+20
      28.5300  5.78007e+20
      28.5350  5.77587e+20
      28.5400  5.77166e+20
      28.5450  5.76746e+20
      28.5500  5.76325e+20
      28.5550  5.75921e+20
      28.5600  5.75572e+20
      28.5650  5.75222e+20
      28.5700  5.74872e+20
      28.5750  5.74523e+20
      28.5800  5.74173e+20
      28.5850  5.73824e+20
      28.5900  5.73474e+20
      28.5950  5.73125e+20
      28.6000  5.72775e+20
      28.6050  5.72426e+20
      28.6100  5.72076e+20
      28.6150  5.71727e+20
      28.6200  5.71377e+20
      28.6250  5.71028e+20
      28.6300  5.70615e+20
      28.6350  5.70197e+20
      28.6400  5.69779e+20
      28.6450  5.69360e+20
      28.6500  5.68942e+20
      28.6550  5.68523e+20
      28.6600  5.68105e+20
      28.6650  5.67687e+20
      28.6700  5.67268e+20
      28.6750  5.66850e+20
      28.6800  5.66432e+20
      28.6850  5.66013e+20
      28.6900  5.65595e+20
      28.6950  5.65177e+20
      28.7000  5.64759e+20
      28.7050  5.64342e+20
      28.7100  5.63924e+20
      28.7150  5.63507e+20
      28.7200  5.63090e+20
      28.7250  5.62672e+20
      28.7300  5.62255e+20
      28.7350  5.61838e+20
      28.7400  5.61420e+20
      28.7450  5.61003e+20
      28.7500  5.60586e+20
      28.7550  5.60169e+20
      28.7600  5.59751e+20
      28.7650  5.59334e+20
      28.7700  5.58931e+20
      28.7750  5.58584e+20
      28.7800  5.58237e+20
      28.7850  5.57890e+20
      28.7900  5.57543e+20
      28.7950  5.57196e+20
      28.8000  5.56849e+20
      28.8050  5.56502e+20
      28.8100  5.56156e+20
      28.8150  5.55809e+20
      28.8200  5.55462e+20
      28.8250  5.55115e+20
      28.8300  5.54768e+20
      28.8350  5.54421e+20
      28.8400  5.54074e+20
      28.8450  5.53674e+20
      28.8500  5.53258e+20
      28.8550  5.52843e+20
      28.8600  5.52428e+20
      28.8650  5.52013e+20
      28.8700  5.51598e+20
      28.8750  5.51182e+20
      28.8800  5.50767e+20
      28.8850  5.50352e+20
      28.8900  5.49937e+20
      28.8950  5.49522e+20
      28.9000  5.49106e+20
      28.9050  5.48691e+20
      28.9100  5.48276e+20
      28.9150  5.47884e+20
      28.9200  5.47539e+20
      28.9250  5.47194e+20
      28.9300  5.46849e+20
      28.9350  5.46504e+20
      28.9400  5.46158e+20
      28.9450  5.45813e+20
      28.9500  5.45468e+20
      28.9550  5.45123e+20
      28.9600  5.44778e+20
      28.9650  5.44433e+20
      28.9700  5.44088e+20
      28.9750  5.43742e+20
      28.9800  5.43397e+20
      28.9850  5.43052e+20
      28.9900  5.42649e+20
      28.9950  5.42236e+20
      29.0000  5.41823e+20
      29.0050  5.41410e+20
      29.0100  5.40997e+20
      29.0150  5.40583e+20
      29.0200  5.40170e+20
      29.0250  5.39757e+20
      29.0300  5.39344e+20
      29.0350  5.38931e+20
      29.0400  5.38518e+20
      29.0450  5.38104e+20
      29.0500  5.37691e+20
      29.0550  5.37278e+20
      29.0600  5.36888e+20
      29.0650  5.36544e+20
      29.0700  5.36201e+20
      29.0750  5.35857e+20
      29.0800  5.35514e+20
      29.0850  5.35171e+20
      29.0900  5.34827e+20
      29.0950  5.34484e+20
      29.1000  5.34140e+20
      29.1050  5.33797e+20
      29.1100  5.33453e+20
      29.1150  5.33110e+20
      29.1200  5.32767e+20
      29.1250  5.32423e+20
      29.1300  5.32080e+20
      29.1350  5.31737e+20
      29.1400  5.31394e+20
      29.1450  5.31052e+20
      29.1500  5.30709e+20
      29.1550  5.30367e+20
      29.1600  5.30024e+20
      29.1650  5.29682e+20
      29.1700  5.29339e+20
      29.1750  5.28997e+20
      29.1800  5.28654e+20
      29.1850  5.28311e+20
      29.1900  5.27969e+20
      29.1950  5.27626e+20
      29.2000  5.27284e+20
      29.2050  5.26941e+20
      29.2100  5.26600e+20
      29.2150  5.26258e+20
      29.2200  5.25916e+20
      29.2250  5.25574e+20
      29.2300  5.25233e+20
      29.2350  5.24891e+20
      29.2400  5.24549e+20
      29.2450  5.24207e+20
      29.2500  5.23866e+20
      29.2550  5.23524e+20
      29.2600  5.23182e+20
      29.2650  5.22841e+20
      29.2700  5.22499e+20
      29.2750  5.22157e+20
      29.2800  5.21779e+20
      29.2850  5.21370e+20
      29.2900  5.20961e+20
      29.2950  5.20552e+20
      29.3000  5.20143e+20
      29.3050  5.19734e+20
      29.3100  5.19325e+20
      29.3150  5.18916e+20
      29.3200  5.18507e+20
      29.3250  5.18098e+20
      29.3300  5.17689e+20
      29.3350  5.17280e+20
      29.3400  5.16871e+20
      29.3450  5.16462e+20
      29.3500  5.16053e+20
      29.3550  5.15704e+20
      29.3600  5.15364e+20
      29.3650  5.15024e+20
      29.3700  5.14684e+20
      29.3750  5.14344e+20
      29.3800  5.14004e+20
      29.3850  5.13664e+20
      29.3900  5.13324e+20
      29.3950  5.12984e+20
      29.4000  5.12644e+20
      29.4050  5.12304e+20
      29.4100  5.11964e+20
      29.4150  5.11624e+20
      29.4200  5.11284e+20
      29.4250  5.10944e+20
      29.4300  5.10605e+20
      29.4350  5.10265e+20
      29.4400  5.09926e+20
      29.4450  5.09587e+20
      29.4500  5.09248e+20
      29.4550  5.08909e+20
      29.4600  5.08570e+20
      29.4650  5.08230e+20
      29.4700  5.07891e+20
      29.4750  5.07552e+20
      29.4800  5.07213e+20
      29.4850  5.06874e+20
      29.4900  5.06535e+20
      29.4950  5.06195e+20
      29.5000  5.05857e+20
      29.5050  5.05518e+20
      29.5100  5.05180e+20
      29.5150  5.04842e+20
      29.5200  5.04503e+20
      29.5250  5.04165e+20
      29.5300  5.03827e+20
      29.5350  5.03488e+20
      29.5400  5.03150e+20
      29.5450  5.02812e+20
      29.5500  5.02474e+20
      29.5550  5.02135e+20
      29.5600  5.01797e+20
      29.5650  5.01459e+20
      29.5700  5.01120e+20
      29.5750  5.00782e+20
      29.5800  5.00445e+20
      29.5850  5.00108e+20
      29.5900  4.99770e+20
      29.5950  4.99433e+20
      29.6000  4.99095e+20
      29.6050  4.98758e+20
      29.6100  4.98420e+20
      29.6150  4.98083e+20
      29.6200  4.97745e+20
      29.6250  4.97408e+20
      29.6300  4.97070e+20
      29.6350  4.96733e+20
      29.6400  4.96395e+20
      29.6450  4.96058e+20
      29.6500  4.95721e+20
      29.6550  4.95385e+20
      29.6600  4.95048e+20
      29.6650  4.94711e+20
      29.6700  4.94375e+20
      29.6750  4.94038e+20
      29.6800  4.93701e+20
      29.6850  4.93365e+20
      29.6900  4.93028e+20
      29.6950  4.92692e+20
      29.7000  4.92355e+20
      29.7050  4.92018e+20
      29.7100  4.91682e+20
      29.7150  4.91345e+20
      29.7200  4.91008e+20
      29.7250  4.90673e+20
      29.7300  4.90337e+20
      29.7350  4.90001e+20
      29.7400  4.89665e+20
      29.7450  4.89329e+20
      29.7500  4.88994e+20
      29.7550  4.88658e+20
      29.7600  4.88322e+20
      29.7650  4.87986e+20
      29.7700  4.87651e+20
      29.7750  4.87315e+20
      29.7800  4.86979e+20
      29.7850  4.86643e+20
      29.7900  4.86307e+20
      29.7950  4.85977e+20
      29.8000  4.85709e+20
      29.8050  4.85441e+20
      29.8100  4.85174e+20
      29.8150  4.84906e+20
      29.8200  4.84638e+20
      29.8250  4.84370e+20
      29.8300  4.84102e+20
      29.8350  4.83834e+20
      29.8400  4.83566e+20
      29.8450  4.83298e+20
      29.8500  4.83030e+20
      29.8550  4.82762e+20
      29.8600  4.82494e+20
      29.8650  4.82226e+20
      29.8700  4.81948e+20
      29.8750  4.81614e+20
      29.8800  4.81280e+20
      29.8850  4.80945e+20
      29.8900  4.80611e+20
      29.8950  4.80277e+20
      29.9000  4.79943e+20
      29.9050  4.79609e+20
      29.9100  4.79275e+20
      29.9150  4.78941e+20
      29.9200  4.78607e+20
      29.9250  4.78273e+20
      29.9300  4.77938e+20
      29.9350  4.77604e+20
      29.9400  4.77270e+20
      29.9450  4.76936e+20
      29.9500  4.76603e+20
      29.9550  4.76270e+20
      29.9600  4.75937e+20
      29.9650  4.75603e+20
      29.9700  4.75270e+20
      29.9750  4.74937e+20
      29.9800  4.74603e+20
      29.9850  4.74270e+20
      29.9900  4.73937e+20
      29.9950  4.73603e+20
      30.0000  4.73270e+20
