# Data from Thekaekara (1973) via Davide Grassi 1/10/24
# Wavelength (microns)    Spectral Luminosity (W micron-1)
1
6.955e5
     0.120000  2.81230e+22
     0.140000  8.43690e+21
     0.150000  1.96861e+22
     0.160000  6.46829e+22
     0.170000  1.77175e+23
     0.180000  3.51537e+23
     0.190000  7.62133e+23
     0.200000  3.00916e+24
     0.210000  6.44016e+24
     0.220000  1.61707e+25
     0.225000  1.82518e+25
     0.230000  1.87580e+25
     0.235000  1.66769e+25
     0.240000  1.77175e+25
     0.245000  2.03329e+25
     0.250000  1.97986e+25
     0.255000  2.92479e+25
     0.260000  3.65599e+25
     0.265000  5.20275e+25
     0.270000  6.52453e+25
     0.275000  5.73709e+25
     0.280000  6.24330e+25
     0.285000  8.85874e+25
     0.290000  1.35553e+26
     0.295000  1.64238e+26
     0.300000  1.44552e+26
     0.305000  1.69582e+26
     0.310000  1.93767e+26
     0.315000  2.14860e+26
     0.320000  2.33421e+26
     0.325000  2.74199e+26
     0.330000  2.98104e+26
     0.335000  3.03728e+26
     0.340000  3.00916e+26
     0.345000  3.00916e+26
     0.350000  3.06541e+26
     0.355000  3.03728e+26
     0.360000  3.00916e+26
     0.365000  3.17790e+26
     0.370000  3.31851e+26
     0.375000  3.26227e+26
     0.380000  3.14977e+26
     0.385000  3.09353e+26
     0.390000  3.09353e+26
     0.395000  3.34664e+26
     0.400000  4.02159e+26
     0.405000  4.61217e+26
     0.410000  4.92152e+26
     0.415000  4.97777e+26
     0.420000  4.92152e+26
     0.425000  4.75278e+26
     0.430000  4.61217e+26
     0.435000  4.66842e+26
     0.440000  5.09026e+26
     0.445000  5.39961e+26
     0.450000  5.65272e+26
     0.455000  5.79334e+26
     0.460000  5.82146e+26
     0.465000  5.76521e+26
     0.470000  5.70897e+26
     0.475000  5.73709e+26
     0.480000  5.82146e+26
     0.485000  5.56835e+26
     0.490000  5.48398e+26
     0.495000  5.51211e+26
     0.500000  5.45586e+26
     0.505000  5.39961e+26
     0.510000  5.28712e+26
     0.515000  5.14651e+26
     0.520000  5.14651e+26
     0.525000  5.20275e+26
     0.530000  5.17463e+26
     0.535000  5.11838e+26
     0.540000  5.00589e+26
     0.545000  4.92152e+26
     0.550000  4.86528e+26
     0.555000  4.83715e+26
     0.560000  4.78091e+26
     0.565000  4.80903e+26
     0.570000  4.80903e+26
     0.575000  4.83715e+26
     0.580000  4.83715e+26
     0.585000  4.80903e+26
     0.590000  4.78091e+26
     0.595000  4.72466e+26
     0.600000  4.69654e+26
     0.605000  4.64029e+26
     0.610000  4.61217e+26
     0.620000  4.49968e+26
     0.630000  4.41531e+26
     0.640000  4.33094e+26
     0.650000  4.24657e+26
     0.660000  4.19032e+26
     0.670000  4.10596e+26
     0.680000  4.02159e+26
     0.690000  3.93722e+26
     0.700000  3.85285e+26
     0.710000  3.76848e+26
     0.720000  3.68411e+26
     0.730000  3.62787e+26
     0.740000  3.54350e+26
     0.750000  3.48725e+26
     0.760000  3.40288e+26
     0.770000  3.34664e+26
     0.780000  3.26227e+26
     0.790000  3.17790e+26
     0.800000  3.12165e+26
     0.810000  3.06541e+26
     0.820000  2.98104e+26
     0.830000  2.92479e+26
     0.840000  2.84042e+26
     0.850000  2.78418e+26
     0.860000  2.72231e+26
     0.870000  2.66325e+26
     0.880000  2.60419e+26
     0.890000  2.55357e+26
     0.900000  2.50576e+26
     0.910000  2.47482e+26
     0.920000  2.44389e+26
     0.930000  2.41295e+26
     0.940000  2.38202e+26
     0.950000  2.35389e+26
     0.960000  2.30608e+26
     0.970000  2.25828e+26
     0.980000  2.20765e+26
     0.990000  2.15703e+26
      1.00000  2.10360e+26
      1.05000  1.87862e+26
      1.10000  1.66769e+26
      1.15000  1.50458e+26
      1.20000  1.36396e+26
      1.25000  1.23179e+26
      1.30000  1.11648e+26
      1.35000  1.00680e+26
      1.40000  9.47745e+25
      1.45000  8.77437e+25
      1.50000  8.09942e+25
      1.55000  7.50884e+25
      1.60000  6.89013e+25
      1.65000  6.27143e+25
      1.70000  5.68084e+25
      1.75000  5.06214e+25
      1.80000  4.47156e+25
      1.85000  3.99346e+25
      1.90000  3.54350e+25
      1.95000  3.20602e+25
      2.00000  2.89667e+25
      2.10000  2.53107e+25
      2.20000  2.22172e+25
      2.30000  1.94049e+25
      2.40000  1.74363e+25
      2.50000  1.54676e+25
      2.60000  1.34990e+25
      2.70000  1.20929e+25
      2.80000  1.09680e+25
      2.90000  9.84305e+24
      3.00000  8.71813e+24
      3.10000  7.31198e+24
      3.20000  6.35579e+24
      3.30000  5.39961e+24
      3.40000  4.66842e+24
      3.50000  4.10596e+24
      3.60000  3.79660e+24
      3.70000  3.45913e+24
      3.80000  3.12165e+24
      3.90000  2.89667e+24
      4.00000  2.67168e+24
      4.10000  2.44670e+24
      4.20000  2.19359e+24
      4.30000  1.99673e+24
      4.40000  1.82799e+24
      4.50000  1.65926e+24
      4.60000  1.49052e+24
      4.70000  1.34990e+24
      4.80000  1.26553e+24
      4.90000  1.15304e+24
      5.00000  1.07711e+24
      6.00000  4.92152e+23
      7.00000  2.78418e+23
      8.00000  1.68738e+23
      9.00000  1.06867e+23
      10.0000  7.03075e+22
      11.0000  4.78091e+22
      12.0000  3.37476e+22
      13.0000  2.44670e+22
      14.0000  1.54676e+22
      15.0000  1.37803e+22
      16.0000  1.06867e+22
      17.0000  8.71813e+21
      18.0000  6.74952e+21
      19.0000  5.62460e+21
      20.0000  4.49968e+21
      25.0000  1.71550e+21
      30.0000  8.43690e+20
      35.0000  4.49968e+20
      40.0000  2.64356e+20
      50.0000  1.06867e+20
      60.0000  5.34337e+19
      80.0000  1.96861e+19
      100.000  8.43690e+18
